Date/time start measurement:  11/15/2021 - 9:51 AM
Frequency(GHz):8.000000E+0
Power(dBm):1.500000E+1
Time between measurements:1.000000E+0
Samplename: 	

-1189.91	-0.00000326969
-1189.44	-0.00000326679
-1181.58	-0.00000313592
-1173.42	-0.00000308628
-1165.04	-0.00000301073
-1156.56	-0.00000299173
-1147.66	-0.00000297175
-1139.15	-0.0000029818
-1130.33	-0.00000298312
-1121.53	-0.00000299051
-1112.55	-0.00000298676
-1103.26	-0.00000302658
-1094.19	-0.00000298977
-1085.06	-0.00000302525
-1075.83	-0.00000302924
-1066.51	-0.00000301229
-1057.23	-0.00000302936
-1048.03	-0.00000304086
-1038.54	-0.0000030721
-1029.11	-0.00000308239
-1019.82	-0.00000305527
-1010.26	-0.00000310986
-1000.81	-0.00000311906
-991.33	-0.00000312862
-981.84	-0.00000316567
-972.23	-0.00000315175
-962.58	-0.00000319569
-953.13	-0.0000031825
-943.43	-0.00000321833
-933.82	-0.00000326083
-924.15	-0.0000032693
-914.53	-0.00000331034
-904.91	-0.00000332426
-895.28	-0.00000336337
-885.55	-0.00000343806
-875.95	-0.00000348479
-866.09	-0.00000351264
-856.22	-0.0000035515
-846.52	-0.00000361228
-836.76	-0.00000367668
-826.9	-0.00000374423
-817.35	-0.00000381808
-807.35	-0.00000388019
-797.64	-0.00000397147
-787.89	-0.00000405597
-777.97	-0.00000416989
-768.1	-0.00000427691
-758.14	-0.00000440015
-748.46	-0.00000451758
-738.57	-0.0000046792
-728.69	-0.00000483101
-718.71	-0.00000493234
-708.8	-0.00000506551
-699.01	-0.00000523669
-689.01	-0.00000538499
-679.09	-0.00000554794
-669.09	-0.00000566488
-659.07	-0.00000570423
-649.31	-0.00000576331
-639.5	-0.00000565242
-629.42	-0.00000554855
-619.38	-0.00000528838
-609.53	-0.00000483827
-599.57	-0.0000044315
-589.47	-0.00000376069
-579.37	-0.00000329714
-569.48	-0.00000262368
-559.71	-0.00000215989
-549.57	-0.00000176631
-539.86	-0.00000125362
-529.84	-0.000000926992
-519.55	-0.000000692374
-509.44	-0.000000382576
-499.83	-0.000000131251
-489.44	0.000000085693
-479.45	0.000000121407
-469.36	0.000000238959
-459.23	0.000000294163
-449.54	0.000000299248
-439.27	0.000000375396
-429.15	0.000000365227
-418.96	0.000000270193
-408.81	0.000000336051
-398.92	0.000000320674
-389	0.000000319827
-378.68	0.000000358809
-368.58	0.000000432415
-358.47	0.000000240531
-348.47	0.000000197675
-338.25	0.000000235688
-328.19	0.000000180968
-318.12	0.000000156393
-307.87	0.000000139203
-297.84	0.0000001024
-287.83	0.0000000917462
-277.51	0.0000000534904
-267.4	0.0000000671705
-257.3	0.0000000671706
-247.05	0.0000000267356
-237.07	0.0000000502217
-226.93	0.0000000116027
-216.6	0.0000000298832
-206.44	0.00000002383
-195.8	0.0000000497375
-186.379	0.0000000993732
-176.14	0.0000000260091
-165.957	0.0000000693495
-155.868	0.000000114143
-145.539	0.000000135208
-135.497	0.000000184723
-125.287	0.000000159663
-115.226	0.00000025736
-104.952	0.000000162447
-94.609	0.00000021983
-84.501	0.000000273098
-74.35	0.000000230847
-63.986	0.000000275035
-54.075	0.000000213535
-43.608	0.000000212324
-33.47	0.000000105547
-23.102	0.0000000118447
-12.3493	-0.000000047355
-2.7342	-0.0000000794366
7.5827	-0.000000099533
17.6451	-0.000000107644
27.9323	-0.0000000923903
38.836	0.000000177701
48.529	0.000000583261
58.388	0.00000147562
68.718	0.00000138397
78.864	0.00000123506
89.276	0.00000108773
99.468	0.00000101836
109.713	0.000000963157
119.868	0.000000810254
130.084	0.000000692823
140.148	0.00000057745
150.374	0.000000472368
160.917	0.000000385444
170.907	0.000000413168
181.269	0.000000360384
191.557	0.000000274672
201.864	0.000000255786
212.104	0.000000231089
222.261	0.000000186901
232.696	0.000000176248
242.785	0.000000133029
252.832	0.0000000762501
263.243	0.0000000388417
273.262	0.0000000537323
283.506	0.0000000321831
294.047	0.0000000256457
305.08	0.0000000143869
314.51	-0.000000018179
324.87	-0.000000066604
334.91	-0.0000000753205
345.07	-0.00000015389
355.47	-0.000000235123
365.78	-0.000000326525
376.08	-0.000000315266
386.1	-0.000000312118
396.56	-0.000000367202
406.58	-0.000000330762
416.99	-0.000000315992
427.34	-0.000000323983
437.49	-0.000000242992
447.85	-0.00000020631
457.98	-0.000000168296
468.41	-0.0000000192685
478.81	0.0000000349676
488.83	0.000000253607
498.84	0.00000043968
509.48	0.000000645488
519.83	0.000000944998
530.03	0.0000012031
540.09	0.00000172949
550.4	0.0000021917
560.59	0.00000277305
570.91	0.00000337292
580.97	0.0000039091
591.47	0.00000457531
601.65	0.00000500823
611.89	0.00000529853
622.23	0.00000565385
632.53	0.00000582189
642.56	0.00000590047
652.83	0.0000059731
663.06	0.00000587686
673.4	0.00000584345
683.92	0.00000572408
694	0.00000558764
704.29	0.00000547602
714.53	0.00000548062
724.87	0.00000503596
735.03	0.00000492372
745.24	0.00000483293
755.66	0.00000469165
766.06	0.00000459589
776.08	0.00000452288
786.42	0.00000443306
796.51	0.0000043971
806.72	0.0000043247
816.99	0.00000426938
827.36	0.00000419953
837.68	0.00000407314
847.72	0.00000400631
857.76	0.00000399263
868.21	0.00000397459
878.47	0.00000389723
888.88	0.00000388912
899.1	0.00000378465
909.23	0.00000372085
919.41	0.00000363295
929.75	0.00000358635
940.09	0.00000353042
950.27	0.00000347896
960.37	0.0000034464
970.65	0.00000343502
980.91	0.00000338199
991.21	0.00000336976
1001.41	0.00000333478
1011.6	0.00000334761
1021.7	0.00000333284
1032.03	0.00000329059
1042.39	0.00000326274
1052.55	0.00000320802
1062.32	0.00000320633
1072.8	0.00000315646
1083.11	0.00000312232
1093.19	0.0000031343
1103.25	0.00000307571
1113.47	0.0000030849
1123.91	0.00000304362
1133.99	0.00000297982
1144.28	0.00000294895
1154.57	0.00000292037
1164.53	0.00000284919
1174.81	0.00000286372
1185.03	0.00000289604
1195.33	0.00000281226
1205.36	0.00000275936
