Date/time start measurement:  11/15/2021 - 9:28 AM
Frequency(GHz):8.000000E+0
Power(dBm):9.000000E+0
Time between measurements:1.000000E+0
Samplename: 	

-1189.66	-0.0000018053
-1189.02	-0.00000172431
-1181.16	-0.00000162007
-1173.05	-0.00000159054
-1164.63	-0.00000154526
-1156.16	-0.00000154623
-1147.53	-0.00000149079
-1138.99	-0.00000148074
-1130.03	-0.00000150325
-1121.14	-0.00000149708
-1112.17	-0.00000148546
-1102.87	-0.00000144502
-1093.89	-0.0000014696
-1084.64	-0.00000146148
-1075.55	-0.00000140931
-1066.29	-0.0000014472
-1056.84	-0.00000143182
-1047.71	-0.00000143642
-1038.23	-0.0000014173
-1028.83	-0.00000141366
-1019.38	-0.00000145119
-1009.97	-0.00000143691
-1000.53	-0.00000145156
-991	-0.00000144962
-981.47	-0.00000146851
-971.85	-0.00000144829
-962.27	-0.00000142505
-952.83	-0.00000142493
-943.2	-0.00000138207
-933.47	-0.00000141476
-923.71	-0.00000138885
-914.23	-0.00000140192
-904.63	-0.00000142444
-894.82	-0.00000140967
-885.15	-0.00000142141
-875.47	-0.00000138606
-865.54	-0.0000014202
-855.73	-0.00000142092
-846.26	-0.00000142044
-836.51	-0.00000147746
-826.62	-0.00000147141
-816.81	-0.00000151995
-806.99	-0.00000152806
-797.36	-0.00000153533
-787.48	-0.00000159174
-777.63	-0.00000161232
-767.75	-0.0000016622
-757.77	-0.00000166317
-748.18	-0.00000169162
-738.3	-0.00000171402
-728.34	-0.00000173557
-718.3	-0.00000182068
-708.53	-0.00000183981
-698.74	-0.00000186305
-688.77	-0.0000018875
-678.82	-0.00000188399
-668.89	-0.0000019789
-658.85	-0.00000196571
-648.91	-0.00000197321
-639.18	-0.00000197479
-629.13	-0.00000189562
-619.11	-0.00000185894
-609.17	-0.0000017116
-599.27	-0.00000161306
-589.29	-0.00000145253
-579.46	-0.00000131646
-569.27	-0.00000123994
-559.18	-0.0000010368
-549.27	-0.000000939951
-539.42	-0.000000818766
-529.35	-0.000000712957
-519.12	-0.000000665741
-509.1	-0.000000570586
-499.24	-0.000000522767
-489.14	-0.000000481121
-479.09	-0.000000429064
-469.11	-0.00000044335
-458.95	-0.000000358969
-449.05	-0.00000037156
-438.98	-0.000000320956
-428.92	-0.000000310303
-418.71	-0.000000327251
-408.52	-0.000000305702
-398.68	-0.000000318172
-388.53	-0.000000286695
-378.42	-0.000000287422
-368.45	-0.000000298075
-358.28	-0.000000289601
-348.27	-0.00000030655
-338.08	-0.000000310666
-327.99	-0.000000333668
-317.92	-0.000000300496
-307.71	-0.000000324225
-297.61	-0.000000338631
-287.57	-0.000000330762
-277.42	-0.000000344563
-267.11	-0.00000037955
-257.06	-0.000000403157
-246.96	-0.000000410058
-236.9	-0.000000376403
-226.98	-0.000000412721
-216.53	-0.000000409695
-206.33	-0.000000371197
-196.052	-0.000000417564
-186.468	-0.000000411511
-176.018	-0.000000413448
-165.698	-0.000000373618
-155.553	-0.000000370228
-145.346	-0.000000384756
-135.244	-0.000000385725
-125.07	-0.000000368534
-114.873	-0.000000362118
-104.592	-0.000000365023
-94.378	-0.000000328825
-84.472	-0.000000283306
-74.211	-0.000000282942
-63.767	-0.000000252193
-53.708	-0.000000253161
-43.455	-0.000000293838
-33.355	-0.000000298802
-23	-0.000000282337
-12.2096	-0.000000312966
-2.6129	-0.000000346984
7.6267	-0.000000341295
17.8175	-0.000000337178
28.0118	-0.000000288753
38.912	-0.000000245534
48.683	-0.000000131009
58.74	0.00000006257
68.837	0.0000000482846
79.156	0.0000000453791
89.376	-0.0000000147891
99.604	-0.0000000704779
109.817	-0.0000000846423
119.941	-0.000000107039
129.819	-0.000000134883
140.416	-0.000000145053
150.398	-0.000000184761
160.616	-0.000000173744
170.712	-0.000000200741
181.222	-0.000000227859
191.279	-0.000000197957
201.65	-0.000000216116
212.126	-0.000000191177
222.201	-0.00000020171
232.527	-0.000000242266
242.707	-0.000000231491
253.019	-0.000000247108
263.359	-0.000000258851
273.391	-0.000000271684
283.687	-0.000000270352
293.959	-0.000000259214
304.83	-0.000000271321
314.38	-0.000000248682
324.64	-0.00000028379
334.77	-0.000000276163
344.97	-0.000000268052
355.15	-0.000000303765
365.62	-0.000000265147
375.86	-0.000000266963
385.87	-0.000000268173
396.19	-0.000000286696
406.47	-0.000000301223
416.38	-0.000000288512
426.93	-0.000000289481
437.19	-0.000000264178
447.45	-0.000000244566
457.76	-0.000000245898
468.12	-0.000000249772
478.38	-0.000000234881
488.41	-0.000000189725
498.73	-0.000000171202
508.85	-0.0000000816156
519.09	0.00000000179678
529.48	0.0000000501009
539.77	0.000000246949
550.06	0.000000376365
559.99	0.000000483022
570.12	0.000000682291
580.85	0.000000816187
591.09	0.00000096582
601.24	0.00000110274
611.51	0.00000112139
621.81	0.00000124451
632.05	0.00000125903
642.03	0.00000131823
652.6	0.00000131666
662.71	0.00000127405
673.1	0.00000127853
683.48	0.00000124947
693.35	0.00000120589
703.78	0.00000120758
714.09	0.00000117756
724.49	0.00000116025
734.65	0.00000112671
744.88	0.00000108979
755.33	0.00000108398
765.54	0.00000108519
775.76	0.00000110335
785.95	0.00000108083
796.17	0.00000105722
806.29	0.00000102151
816.66	0.00000100274
826.95	0.00000103337
837.26	0.000000992453
847.36	0.000000975989
857.69	0.000000936159
867.97	0.000000928411
878.21	0.000000991001
888.49	0.000000908678
898.88	0.000000874539
908.98	0.000000910494
919.1	0.000000845
929.4	0.000000858559
939.83	0.000000820303
949.95	0.000000807833
960.19	0.000000778778
970.48	0.000000796211
980.69	0.000000801296
990.97	0.000000754444
1001.25	0.000000747665
1011.4	0.000000693186
1021.5	0.000000707593
1031.81	0.000000685317
1042.13	0.000000670548
1052.45	0.000000682533
1062.31	0.000000671516
1072.72	0.000000683622
1082.92	0.000000677207
1093.16	0.000000683987
1103.38	0.000000680718
1113.5	0.000000641494
1123.77	0.000000664496
1133.88	0.000000654932
1144.33	0.000000680476
1154.48	0.000000680113
1164.48	0.000000654084
1174.78	0.000000602753
1185.14	0.000000569219
1195.33	0.000000579388
1205.44	0.000000594036
