Date/time start measurement:  11/12/2021 - 11:17 AM
Frequency(GHz):6.000000E+0
Power(dBm):1.200000E+1
Time between measurements:1.000000E+0
Samplename: 	

-475.9	-0.0000102764
-475.26	-0.0000102425
-471.36	-0.0000101927
-467.45	-0.0000102123
-463.28	-0.0000102143
-459.27	-0.0000102525
-454.97	-0.0000103023
-450.62	-0.0000103809
-446.23	-0.000010461
-441.91	-0.0000105119
-437.61	-0.0000105459
-433.01	-0.0000106483
-428.58	-0.0000106984
-423.96	-0.0000108033
-419.43	-0.000010865
-415.05	-0.0000109337
-410.52	-0.0000109934
-405.95	-0.0000111063
-401.27	-0.0000112378
-396.71	-0.0000113794
-392.02	-0.0000115375
-387.33	-0.0000116754
-382.63	-0.0000118587
-378.01	-0.0000119614
-373.43	-0.0000121339
-368.95	-0.0000123169
-364.21	-0.0000125609
-359.45	-0.0000126134
-354.69	-0.0000127572
-349.96	-0.0000128888
-345.24	-0.0000129411
-340.5	-0.0000130151
-335.76	-0.0000130527
-330.95	-0.0000130848
-326.21	-0.0000131376
-321.63	-0.000013066
-316.92	-0.0000129468
-312.12	-0.0000128187
-307.35	-0.0000125886
-302.5	-0.0000123541
-297.58	-0.000012151
-292.83	-0.0000118418
-288.09	-0.000011546
-283.22	-0.0000111281
-278.46	-0.0000107459
-273.71	-0.0000103191
-269.03	-0.00000998638
-264.23	-0.00000967028
-259.29	-0.00000929291
-254.38	-0.00000893989
-249.59	-0.00000866931
-244.65	-0.00000839813
-239.95	-0.00000809814
-235.03	-0.00000785626
-230.19	-0.00000768277
-225.34	-0.00000752891
-220.42	-0.00000745711
-215.64	-0.00000737915
-210.68	-0.00000719416
-205.87	-0.00000700882
-201.09	-0.00000679284
-195.778	-0.00000669987
-191.468	-0.00000655617
-186.415	-0.00000649975
-181.524	-0.00000638632
-176.628	-0.00000627869
-172.019	-0.00000631308
-167.101	-0.00000629952
-162.251	-0.00000624589
-157.253	-0.00000617748
-152.277	-0.00000616526
-147.273	-0.00000608391
-142.446	-0.00000605219
-137.587	-0.000005985
-132.623	-0.00000583719
-127.74	-0.0000057689
-122.941	-0.0000057402
-117.885	-0.00000574287
-113.016	-0.00000568329
-108.116	-0.00000566089
-103.259	-0.00000565228
-98.189	-0.00000563304
-93.302	-0.0000056426
-88.353	-0.00000565083
-83.346	-0.00000565702
-78.512	-0.00000568789
-73.609	-0.00000571561
-68.745	-0.00000570474
-63.766	-0.00000569287
-58.712	-0.00000566516
-53.744	-0.0000056884
-48.664	-0.00000570958
-43.693	-0.00000576793
-38.789	-0.00000572931
-33.93	-0.00000578136
-28.98	-0.00000579577
-24.078	-0.00000585932
-18.5522	-0.00000586828
-14.0232	-0.00000587096
-9.0244	-0.00000580499
-4.1136	-0.00000581225
