Date/time start measurement:  11/12/2021 - 11:43 AM
Frequency(GHz):9.000000E+0
Power(dBm):1.200000E+1
Time between measurements:1.000000E+0
Samplename: 	

-1188.97	-0.0000069627
-1188.23	-0.00000695375
-1180.52	-0.00000681901
-1172.37	-0.00000678281
-1164.01	-0.00000669795
-1155.55	-0.00000667653
-1146.84	-0.00000667483
-1138.27	-0.00000667567
-1129.32	-0.00000668754
-1120.3	-0.00000667264
-1111.24	-0.00000666029
-1102.2	-0.00000669431
-1093.13	-0.00000671876
-1083.93	-0.00000678051
-1074.81	-0.00000677252
-1065.55	-0.00000682361
-1056.13	-0.00000685521
-1046.96	-0.00000689141
-1037.48	-0.00000692155
-1028.09	-0.00000697284
-1018.75	-0.0000069703
-1009.21	-0.0000068674
-999.84	-0.00000685735
-990.3	-0.0000068835
-980.79	-0.00000682575
-971.15	-0.00000692018
-961.58	-0.00000698107
-952.17	-0.00000703022
-942.5	-0.00000709951
-932.9	-0.00000718728
-923.17	-0.00000725605
-913.53	-0.00000728838
-903.92	-0.00000736937
-894.42	-0.00000742868
-884.65	-0.00000743401
-874.83	-0.00000754129
-865.01	-0.00000761102
-855.12	-0.00000778245
-845.63	-0.00000797334
-835.92	-0.00000814646
-825.97	-0.00000829876
-816.33	-0.00000848059
-806.39	-0.00000865966
-796.79	-0.00000877285
-786.98	-0.00000893336
-777.18	-0.00000908674
-767.21	-0.0000092187
-757.27	-0.00000934584
-747.54	-0.00000937659
-737.75	-0.00000939039
-727.87	-0.00000932332
-717.92	-0.00000918533
-708	-0.00000904998
-698.24	-0.00000875979
-688.11	-0.00000856246
-678.26	-0.00000825871
-668.39	-0.00000803702
-658.41	-0.00000779768
-648.6	-0.0000073604
-638.61	-0.00000709273
-628.7	-0.00000674648
-618.63	-0.00000655375
-608.63	-0.0000063609
-598.83	-0.00000613911
-588.81	-0.00000602228
-578.73	-0.00000582011
-568.77	-0.00000570074
-558.85	-0.00000549953
-548.93	-0.00000528937
-538.95	-0.00000518186
-528.96	-0.0000049878
-518.84	-0.00000488599
-508.72	-0.00000470307
-498.91	-0.00000463612
-488.86	-0.00000454835
-478.8	-0.00000449908
-468.78	-0.00000460053
-458.72	-0.00000450174
-448.71	-0.00000448733
-438.7	-0.00000444363
-428.6	-0.00000445743
-418.41	-0.00000448273
-408.33	-0.00000445331
-398.41	-0.00000449132
-388.35	-0.00000447546
-378.21	-0.00000443357
-368.23	-0.00000444072
-358.05	-0.00000442727
-348.12	-0.00000440197
-337.96	-0.00000440996
-327.93	-0.00000440657
-317.78	-0.00000441481
-307.59	-0.00000447558
-297.56	-0.00000447461
-287.59	-0.00000451892
-277.44	-0.00000457776
-267.1	-0.00000462086
-257.12	-0.00000465597
-246.95	-0.00000464313
-236.82	-0.00000461795
-226.7	-0.00000465911
-216.47	-0.00000462654
-206.32	-0.00000449216
-195.734	-0.00000436323
-186.388	-0.00000440112
-176.181	-0.00000442461
-165.933	-0.00000436129
-155.95	-0.00000446007
-145.747	-0.00000450099
-135.71	-0.00000452363
-125.677	-0.0000045786
-115.235	-0.00000458053
-104.95	-0.00000463647
-94.748	-0.00000463901
-84.864	-0.00000464882
-74.649	-0.00000467182
-64.298	-0.00000471613
-54.323	-0.0000045872
-43.909	-0.00000451529
-33.861	-0.00000458902
-23.609	-0.00000458127
-13.0587	-0.00000463528
-3.3181	-0.00000460332
6.8062	-0.00000154176
16.8974	-0.000000190815
27.3757	-0.0000000833104
38.394	-0.00000000582979
47.971	0.000000146226
57.982	0.000000210511
68.178	0.000000230244
78.459	0.00000030034
88.698	0.000000290776
98.949	0.000000307967
109.171	0.000000215353
119.217	0.000000100464
129.404	0.0000000206831
139.746	-0.0000000400908
149.969	-0.0000000921481
160.407	-0.000000134641
170.351	-0.000000196747
180.677	-0.000000198683
191.007	-0.000000203647
201.113	-0.000000156917
211.6	-0.0000000973539
221.714	-0.000000305944
231.913	-0.000000368655
242.194	-0.000000475794
252.486	-0.000000298317
262.818	-0.000000417442
272.785	-0.000000399647
283.138	-0.000000490807
293.452	-0.000000479549
304.3	-0.000000484392
313.9	-0.000000537538
324.13	-0.000000519015
334.33	-0.000000533664
344.39	-0.000000532454
354.74	-0.000000589717
364.99	-0.000000569255
375.41	-0.000000640924
385.38	-0.000000702303
395.77	-0.000000664168
406.08	-0.000000675428
416.3	-0.000000749155
426.67	-0.000000748671
436.8	-0.000000773125
447.12	-0.000000775304
457.31	-0.00000076659
467.69	-0.000000760658
478.03	-0.000000779422
488.06	-0.000000718164
498.26	-0.000000751699
508.63	-0.000000748672
519.07	-0.000000658238
529.12	-0.000000619257
539.29	-0.00000047955
549.69	-0.000000420108
559.87	-0.000000343233
570.19	-0.000000120114
580.58	-0.0000000496549
590.73	0.000000249492
600.96	0.000000477333
611.28	0.000000637863
621.55	0.00000217621
631.83	0.00000372049
641.92	0.00000280645
652.23	0.0000149374
662.4	-0.0000139929
672.85	0.0000161632
683.15	0.0000351763
693.36	0.0000535273
703.54	0.000253269
713.97	0.00113516
724.26	-0.0000399515
734.41	-0.00000125229
744.62	-0.00000318239
755.01	0.0000640633
765.36	0.0000896134
775.52	-0.00000309014
785.85	-0.000198054
795.94	0.00158194
806.11	0.000387033
816.42	-0.000459608
826.85	-0.000212163
837.2	0.0000719707
847.21	0.00117019
857.59	-0.000220946
867.91	0.00110394
878.04	0.00123193
888.47	-0.000138213
898.89	0.0000227873
908.83	-0.000000621433
919.13	0.00000118506
929.5	0.00000146266
939.82	0.00000141884
950.06	0.00000169353
960.08	0.00000132671
970.4	0.00000129753
980.88	0.00000120504
991.08	0.00000120322
1001.36	0.00000117586
1011.5	0.00000119342
1021.46	0.00000107369
1031.96	0.00000097308
1042.3	0.000000894511
1052.68	0.000000816547
1062.69	0.000000855044
1073.06	0.000000953469
1083.3	0.00000106521
1093.5	0.00000106581
1103.85	0.0000010864
1113.93	0.00000106049
1124.31	0.00000097575
1134.53	0.000000920666
1144.81	0.000000831079
1155.05	0.00000074585
1165.19	0.000000685924
1175.41	0.00000061026
1185.8	0.000000558929
1196.04	0.000000488955
1206.12	0.000000457599
