Date/time start measurement:  11/15/2021 - 12:08 PM
Frequency(GHz):1.000000E+1
Power(dBm):9.000000E+0
Time between measurements:1.000000E+0
Samplename: 	

1525.04	0.0000000147501
1524.38	0.00000016971
1515.18	0.000000305785
1505.42	0.000000343194
1495.43	0.000000385687
1485.27	0.000000427332
1474.65	0.000000453603
1463.97	0.000000477331
1453.73	0.000000520672
1443.04	0.000000536167
1432.01	0.000000513892
1421.14	0.000000538223
1410.3	0.000000562315
1399.25	0.000000555172
1388.12	0.00000057079
1376.91	0.000000567158
1365.66	0.000000582655
1354.32	0.000000599846
1342.84	0.000000616068
1331.48	0.000000621153
1320.02	0.000000630111
1308.53	0.000000628661
1297.32	0.00000062406
1285.87	0.000000630718
1274.3	0.000000641251
1262.74	0.000000657956
1251.13	0.000000655414
1239.43	0.000000668005
1227.99	0.000000696575
1216.35	0.000000686285
1204.71	0.000000704687
1193.17	0.000000688464
1181.34	0.000000696334
1169.69	0.000000681806
1157.98	0.000000696455
1146.43	0.000000711346
1134.41	0.000000717522
1122.61	0.000000734712
1110.89	0.000000761346
1098.99	0.000000752995
1087.21	0.000000750937
1075.45	0.000000792096
1063.9	0.00000080396
1051.74	0.000000823088
1040.03	0.00000080735
1027.93	0.000000842579
1016.3	0.000000817034
1004.21	0.000000848631
992.22	0.000000867276
980.19	0.000000898631
968.36	0.000000912435
956.36	0.00000096885
944.4	0.00000100832
932.62	0.00000103604
920.55	0.00000108447
908.41	0.00000111074
896.62	0.00000116994
884.78	0.00000123143
872.73	0.00000129378
860.54	0.00000136206
848.46	0.00000145831
836.35	0.00000157186
824.16	0.00000164293
812.37	0.00000174801
800.59	0.00000182052
788.37	0.000001871
776.22	0.00000190539
763.9	0.00000184813
751.89	0.00000167101
739.79	0.00000136738
727.93	0.00000105952
715.8	0.000000576603
703.45	0.000000277578
691.29	0.0000000270986
679.2	-0.0000000960222
667.09	-0.000000176892
654.84	-0.000000234881
642.88	-0.000000275316
630.6	-0.000000252435
618.42	-0.000000242387
606.38	-0.000000214905
594.1	-0.000000209458
582.03	-0.000000191177
569.68	-0.000000144689
557.75	-0.000000139968
545.7	-0.000000135973
533.35	-0.0000000979592
521.43	-0.000000100623
509.21	-0.0000000507446
496.82	-0.0000000301639
484.56	-0.0000000317377
472.37	-0.0000000117624
460.18	0.00000000990792
448.26	0.0000000152345
435.85	0.0000000172926
423.56	0.0000000157187
411.08	0.000000016203
399.07	0.0000000337571
386.85	0.0000000382365
374.88	0.0000000434422
362.39	0.00000000615486
350.54	0.000000010271
338	-0.0000000290744
325.63	-0.00000000619355
313.46	-0.0000000239898
301.24	-0.0000000278638
289.03	-0.0000000219317
276.77	-0.000000005104
264.74	-0.0000000074042
252.21	-0.0000000206001
239.82	-0.0000000277428
227.56	-0.0000000207211
215.34	-0.0000000198737
203.04	-0.0000000284691
189.916	-0.000000072536
178.881	-0.0000000673303
166.217	-0.000000086095
153.846	-0.0000000902112
141.581	-0.0000000990488
129.305	-0.000000143963
117.268	-0.000000172413
104.905	-0.000000271805
92.609	-0.000000303765
80.355	-0.000000360786
67.973	-0.000000343595
55.571	-0.000000517561
43.234	-0.000000157401
31.228	-0.000000401584
17.9882	-0.00000046841
6.5653	-0.00000063245
-5.5482	-0.000000568892
-18.3178	-0.000000631723
-30.0498	-0.000000668526
-43.034	-0.000000910288
-55.339	-0.000000935469
-67.676	-0.000000936074
-80.079	-0.000000874937
-92.254	-0.000000802784
-104.686	-0.000000846488
-117.004	-0.000000817312
-129.294	-0.000000807142
-141.509	-0.000000807627
-153.95	-0.000000758476
-166.038	-0.000000752545
-178.528	-0.000000734869
-190.878	-0.000000746976
-203.331	-0.000000709083
-215.614	-0.000000702303
-227.986	-0.000000716829
-240.24	-0.000000744553
-252.572	-0.000000733535
-264.843	-0.000000756174
-277.131	-0.000000774575
-289.276	-0.000000720823
-302.48	-0.000000775422
-314.24	-0.000000590924
-326.3	-0.000000517439
-338.56	-0.000000429186
-351	-0.000000516957
-363.18	-0.000000687534
-375.58	-0.00000102191
-387.82	-0.00000131185
-399.89	-0.00000117772
-412.23	-0.00000117638
-424.31	-0.00000123401
-436.72	-0.00000091041
-449.14	-0.000000863558
-461.74	-0.000000754844
-474.3	-0.000000689833
-486.69	-0.000000600489
-498.68	-0.000000724094
-510.92	-0.000000775908
-523.4	-0.000000677848
-535.78	-0.000000624459
-548.03	-0.000000672279
-560.51	-0.000000531604
-572.47	-0.000000476642
-585.06	-0.000000376281
-597.34	-0.000000356427
-609.64	-0.000000400615
-621.91	-0.000000552063
-634.03	-0.000000585477
-646	-0.00000057325
-658.74	-0.000000993578
-671.17	-0.00000112566
-683.36	-0.00000155143
-695.65	-0.00000191692
-707.96	-0.00000214307
-720.4	-0.00000245916
-732.7	-0.00000261981
-744.79	-0.0000026738
-757.25	-0.00000261545
-769.2	-0.00000250068
-781.53	-0.00000237284
-794.06	-0.00000232454
-806.27	-0.00000216837
-818.34	-0.00000204997
-830.8	-0.00000196631
-843.16	-0.00000184937
-855.45	-0.00000178327
-867.62	-0.00000170966
-879.87	-0.00000162976
-892.22	-0.00000157577
-904.49	-0.00000154635
-916.61	-0.00000153884
-929.07	-0.00000145797
-941.31	-0.00000143134
-953.58	-0.00000144587
-965.72	-0.00000138074
-977.61	-0.0000013564
-990.23	-0.00000131621
-1002.43	-0.00000131778
-1014.68	-0.00000128715
-1027.11	-0.00000128449
-1039.28	-0.00000122093
-1051.42	-0.00000120895
-1063.7	-0.000001196
-1075.58	-0.00000114878
-1088.04	-0.00000114285
-1100.24	-0.00000111367
-1112.58	-0.00000109116
-1124.9	-0.00000106379
-1136.99	-0.00000105605
-1149.1	-0.00000104103
-1161.56	-0.000000999631
-1173.63	-0.000000992609
-1185.79	-0.000000974329
-1198.14	-0.00000096307
-1210.22	-0.000000965492
-1222.54	-0.00000097324
-1234.68	-0.00000096513
-1246.72	-0.000000965977
-1258.68	-0.000000990916
-1270.86	-0.00000096174
-1282.88	-0.000000953992
-1295.73	-0.00000094467
-1307.61	-0.000000919368
-1319.68	-0.000000930143
-1331.95	-0.000000949634
-1344.44	-0.000000983652
-1356.64	-0.000000993216
-1368.85	-0.000000990673
-1380.78	-0.000000984983
-1393.38	-0.00000097905
-1405.63	-0.000000972029
-1417.48	-0.00000100605
-1429.75	-0.000000985951
-1442.19	-0.000000992973
-1454.31	-0.0000010351
-1466.96	-0.00000107336
-1479.07	-0.00000108861
