Date/time start measurement:  2/24/2022 - 9:49 AM
Frequency(GHz):3.000000E+0
Power(dBm):1.800000E+1
Time between measurements:1.000000E+0
Samplename: 	

30.028	0.00000664262
30.4	0.00000949979
33.297	0.0000108368
36.456	0.0000112997
39.62	0.0000118403
42.897	0.0000122276
46.332	0.0000119963
49.721	0.0000123919
53.214	0.000012717
56.504	0.0000127142
59.903	0.000012667
63.498	0.0000127591
66.973	0.000013027
70.489	0.0000131044
74.129	0.0000132407
77.819	0.0000131406
81.509	0.0000128023
84.922	0.0000128489
88.381	0.0000132862
92.081	0.0000134556
95.733	0.000013705
99.325	0.000013607
103.155	0.0000133286
106.857	0.0000137221
110.56	0.0000137405
114.149	0.0000139604
117.808	0.0000139282
121.328	0.0000139498
125.082	0.0000138877
128.78	0.0000143804
132.551	0.0000144065
136.333	0.0000140525
139.971	0.0000145145
143.74	0.0000150094
147.544	0.0000151925
151.253	0.0000160081
154.851	0.0000165817
158.606	0.0000175153
162.341	0.0000187436
166.22	0.0000209769
170.112	0.000024595
173.68	0.0000328618
177.352	0.0000456614
181.214	0.0000599275
185.033	0.0000488018
188.542	0.0000235928
192.342	0.0000137475
196.304	0.0000109225
200.02	0.0000107165
203.737	0.000010892
207.73	0.0000110572
211.501	0.0000110508
215.295	0.0000111933
218.822	0.0000110562
222.675	0.0000114372
226.652	0.0000113922
230.563	0.0000117128
234.217	0.0000114856
238.094	0.0000114504
241.753	0.0000118709
245.786	0.0000115956
249.404	0.0000116889
253.189	0.0000117692
257.191	0.0000118401
261.034	0.0000116613
264.743	0.0000116797
268.609	0.0000118544
272.428	0.0000116003
276.364	0.0000113959
280.002	0.0000115114
283.846	0.0000118505
287.601	0.0000118163
291.577	0.0000122384
295.322	0.0000116896
299.193	0.0000121314
302.93	0.0000118784
306.78	0.0000116604
310.65	0.0000115237
314.53	0.0000117681
318.34	0.00001129
322.33	0.0000113151
326.01	0.0000114961
329.92	0.0000114783
333.68	0.0000115915
337.62	0.0000115405
341.4	0.0000113694
345.28	0.0000115296
349.21	0.0000115705
353.04	0.0000113413
356.86	0.0000116662
360.84	0.000011507
364.64	0.0000114043
368.53	0.0000117348
372.29	0.0000113995
376.18	0.0000112582
380.09	0.0000114317
383.99	0.0000109016
387.79	0.0000114025
391.65	0.0000113458
395.61	0.0000111912
399.51	0.0000112508
