Date/time start measurement:  2/24/2022 - 9:44 AM
Frequency(GHz):4.000000E+0
Power(dBm):1.800000E+1
Time between measurements:1.000000E+0
Samplename: 	

117.679	-0.00000968874
118.306	-0.00000676364
121.656	-0.00000575876
125.296	-0.00000528184
129.024	-0.00000481439
132.712	-0.00000440885
136.347	-0.00000418722
140.097	-0.00000410262
143.898	-0.00000390985
147.455	-0.00000407435
151.164	-0.00000381771
154.821	-0.00000400947
158.565	-0.00000370312
162.215	-0.00000395894
166.077	-0.00000387519
169.925	-0.00000387107
173.664	-0.00000390192
177.342	-0.00000349364
181.114	-0.00000348742
184.899	-0.00000368214
188.602	-0.00000354319
192.302	-0.00000350623
196.234	-0.00000338611
199.889	-0.0000036305
203.708	-0.00000359463
207.477	-0.00000352794
211.286	-0.00000312433
215.111	-0.00000316956
218.737	-0.00000327089
222.529	-0.00000325
226.617	-0.00000328409
230.414	-0.00000302581
234.204	-0.0000030198
238.002	-0.00000301826
241.815	-0.00000309374
245.573	-0.00000315356
249.422	-0.00000330048
253.052	-0.00000329478
257.033	-0.00000339997
260.971	-0.00000304021
264.786	-0.00000304424
268.468	-0.00000302258
272.29	-0.00000321217
276.183	-0.00000287073
280.04	-0.00000272006
283.741	-0.00000252656
287.496	-0.00000285113
291.541	-0.00000245685
295.444	-0.00000227297
299.168	-0.00000201098
302.8	-0.00000179375
306.77	-0.00000132753
310.69	-0.000000525585
314.49	0.00000106255
318.31	0.0000038736
322.28	0.0000084469
326.09	0.0000152733
329.71	0.0000192663
333.72	0.0000127459
337.61	0.0000030535
341.58	-0.00000147564
345.16	-0.00000325117
349.13	-0.0000041777
353.17	-0.00000466175
356.95	-0.00000468112
360.8	-0.0000047911
364.64	-0.00000484883
368.46	-0.00000495921
372.4	-0.00000486318
376.15	-0.00000487345
380.09	-0.00000478426
384.21	-0.00000495826
387.98	-0.0000049433
391.71	-0.00000490936
395.55	-0.00000495781
399.57	-0.00000485294
403.49	-0.00000481874
407.19	-0.00000488331
411.11	-0.00000483976
415.19	-0.00000488299
419.14	-0.00000481364
422.75	-0.00000491704
426.64	-0.00000480412
430.61	-0.00000479199
434.46	-0.00000488845
438.31	-0.00000488923
442.23	-0.00000484166
446.23	-0.00000483962
450.16	-0.00000494662
453.9	-0.00000485576
457.81	-0.00000501968
461.77	-0.00000492026
465.72	-0.00000501625
469.47	-0.00000496067
473.39	-0.00000490694
477.33	-0.00000494335
481.37	-0.00000491682
485.18	-0.00000481216
488.95	-0.00000485839
492.92	-0.00000490513
496.92	-0.00000649136
