Date/time start measurement:  7/30/2021 - 11:16 AM
Frequency(GHz):2.500000E+0
Power(dBm):1.100000E+1
Time between measurements:2.000000E+0
Samplename: 	

310.56	-0.00000739038
308.89	-0.00000770841
306.71	-0.00000751326
304.18	-0.00000718967
301.92	-0.00000708071
299.25	-0.00000725031
296.68	-0.00000721255
294.16	-0.00000708434
291.69	-0.00000711521
289.11	-0.00000707901
286.35	-0.00000711546
283.86	-0.00000696619
280.95	-0.00000676885
278.43	-0.00000706885
275.59	-0.00000714969
272.98	-0.00000696035
270.3	-0.00000683905
267.44	-0.00000680588
264.88	-0.00000687876
262.14	-0.0000067951
259.4	-0.00000660882
256.73	-0.0000067938
254.02	-0.00000678242
251.07	-0.00000669274
248.49	-0.00000713195
245.57	-0.00000703171
242.85	-0.00000686888
239.97	-0.00000710071
237.4	-0.00000690869
234.48	-0.0000066564
231.7	-0.00000666088
229.02	-0.00000695397
226.1	-0.00000699041
223.4	-0.00000694065
220.61	-0.00000675397
217.79	-0.00000735396
214.89	-0.00000719536
211.97	-0.00000724379
209.21	-0.00000732297
206.49	-0.00000735312
203.6	-0.00000754646
200.74	-0.00000705494
197.771	-0.00000737588
195.383	-0.00000734574
192.559	-0.00000758338
189.671	-0.00000747829
186.809	-0.00000701547
183.895	-0.00000785359
181.175	-0.00000764208
178.302	-0.00000744863
175.259	-0.00000748628
172.611	-0.000007272
169.763	-0.00000725927
166.783	-0.00000744171
164.047	-0.00000762428
161.111	-0.0000073732
158.402	-0.00000749838
155.65	-0.00000738615
152.455	-0.00000727733
149.607	-0.00000760288
146.746	-0.00000720905
143.991	-0.00000713193
140.967	-0.0000067041
138.299	-0.00000680216
135.329	-0.00000705299
132.274	-0.00000693362
129.578	-0.00000665736
126.711	-0.00000647262
123.917	-0.0000069427
121.128	-0.00000662213
118.172	-0.00000683726
115.237	-0.0000067248
112.293	-0.00000713653
109.53	-0.00000707672
106.469	-0.00000730129
103.653	-0.00000733144
100.69	-0.00000728894
97.955	-0.00000735552
95.135	-0.00000734256
92.156	-0.00000734801
89.379	-0.00000745963
86.433	-0.00000765757
83.316	-0.00000786822
80.475	-0.0000082061
77.619	-0.0000085946
74.789	-0.0000089556
71.777	-0.00000919724
69.02	-0.00000967495
66.008	-0.0000097258
62.965	-0.0000100958
60.165	-0.0000101632
57.39	-0.00000990654
54.497	-0.0000105704
51.557	-0.0000102932
48.575	-0.0000105727
45.594	-0.0000105855
42.656	-0.0000105303
39.672	-0.0000100368
36.764	-0.0000091763
33.924	-0.0000087475
30.996	-0.00000819618
28.085	-0.00000767356
25.12	-0.00000759947
22.395	-0.00000719802
19.971	-0.00000698386
16.5937	-0.00000701655
13.626	-0.00000745164
10.7411	-0.00000757585
7.5933	-0.00000732792
4.8575	-0.00000746726
1.9228	-0.00000745491
-0.02807	-0.00000760684
-2.93007	-0.00000718845
-7.1526	-0.0000071341
-9.8972	-0.00000680372
-12.6177	-0.0000071726
-15.5679	-0.00000718628
-18.6924	-0.00000731279
-21.4317	-0.00000707236
-24.5173	-0.00000714233
-27.3511	-0.00000718519
-30.0242	-0.00000707611
-33.337	-0.00000734184
-36.31	-0.00000704185
-39.332	-0.00000705456
-42.26	-0.00000712744
-45.163	-0.00000706086
-47.98	-0.00000729644
-50.944	-0.00000743409
-54.041	-0.00000764365
-56.723	-0.00000790636
-59.901	-0.00000773191
-62.781	-0.00000806434
-65.56	-0.00000817669
-68.767	-0.00000781508
-71.7	-0.00000828432
-74.47	-0.00000805127
-77.383	-0.00000828674
-80.205	-0.00000826712
-83.249	-0.00000822633
-86.305	-0.00000828528
-89.308	-0.0000081681
-92.023	-0.00000828949
-95.171	-0.00000850511
-98.048	-0.0000083654
-100.88	-0.0000086683
-103.854	-0.00000871914
-106.93	-0.00000863222
-109.893	-0.00000848335
-112.74	-0.00000731824
-115.624	-0.00000630652
-118.567	-0.00000520703
-121.552	-0.00000499929
-124.629	-0.00000578874
-127.457	-0.00000597578
-130.374	-0.0000062633
-133.486	-0.00000641875
-136.383	-0.00000641475
-139.327	-0.00000668036
-142.406	-0.0000067489
-145.162	-0.00000684963
-148.117	-0.00000670289
-151.113	-0.00000685688
-153.836	-0.00000654333
-157.047	-0.00000677105
-159.792	-0.00000697492
-162.834	-0.00000685074
-165.854	-0.00000701333
-168.777	-0.00000682253
-171.86	-0.00000685363
-174.728	-0.00000690699
-177.665	-0.00000722309
-180.607	-0.00000727101
-183.589	-0.00000681935
-186.555	-0.00000714285
-189.582	-0.00000698704
-192.354	-0.00000686685
-195.336	-0.00000680738
-198.491	-0.00000729127
-201.397	-0.00000723095
-204.404	-0.00000704936
-207.255	-0.00000702609
-210.351	-0.00000723383
-213.132	-0.00000750697
-216.045	-0.0000073403
-219.151	-0.00000724345
-221.846	-0.00000737628
-225.047	-0.00000744711
-227.965	-0.00000726056
-230.913	-0.00000771685
-233.792	-0.0000073913
-236.733	-0.00000754573
-239.711	-0.00000780493
-242.674	-0.00000745906
-245.732	-0.00000708933
-248.544	-0.00000719645
-251.32	-0.00000718386
-254.523	-0.00000670167
-257.285	-0.00000733033
-260.351	-0.00000722756
-263.41	-0.00000716558
