Date/time start measurement:  7/30/2021 - 12:02 PM
Frequency(GHz):2.000000E+0
Power(dBm):1.100000E+1
Time between measurements:2.000000E+0
Samplename: 	

204.43	-0.00000595616
202.914	-0.00000611514
200.439	-0.00000569957
197.914	-0.00000584698
195.527	-0.0000061151
192.903	-0.00000574588
190.295	-0.00000579737
187.773	-0.00000566608
185.02	-0.00000584529
182.445	-0.00000560546
179.954	-0.00000545501
177.305	-0.00000581398
174.615	-0.00000600927
171.901	-0.0000054796
169.187	-0.00000584946
166.478	-0.00000589579
163.747	-0.00000565427
161.06	-0.00000629611
158.282	-0.00000624734
155.505	-0.00000629106
152.773	-0.0000066287
150.043	-0.00000664811
147.424	-0.00000646513
144.59	-0.000006032
141.858	-0.00000613689
138.969	-0.00000588088
136.206	-0.00000584562
133.44	-0.00000577866
130.752	-0.00000563121
127.911	-0.00000553356
125.134	-0.00000511634
122.289	-0.00000546855
119.462	-0.00000534097
116.787	-0.00000566669
114.02	-0.0000051861
111.172	-0.00000529116
108.395	-0.00000502758
105.608	-0.00000534322
102.734	-0.00000544451
99.975	-0.00000519079
97.084	-0.00000515592
94.226	-0.00000529246
91.443	-0.00000560898
88.574	-0.00000528674
85.698	-0.00000569513
83	-0.00000515538
80.18	-0.00000562955
77.347	-0.00000573194
74.508	-0.00000584162
71.616	-0.00000653593
68.825	-0.00000701539
66.027	-0.00000735623
63.071	-0.00000811859
60.213	-0.00000926984
57.449	-0.0000101201
54.495	-0.0000111316
51.635	-0.0000107331
48.893	-0.0000101735
45.987	-0.00000861774
43.084	-0.00000733481
40.269	-0.00000613816
37.421	-0.00000553112
34.451	-0.00000490838
31.619	-0.00000476282
28.731	-0.00000495947
25.852	-0.00000475632
22.996	-0.00000471942
20.129	-0.00000459705
17.2789	-0.00000448068
14.5277	-0.00000516047
11.6036	-0.00000501229
8.758	-0.0000054423
5.859	-0.00000504439
2.9033	-0.00000524347
0.94489	-0.00000543776
-1.85879	-0.00000530675
-5.8323	-0.00000544307
-8.6952	-0.00000538066
-11.6836	-0.00000540464
-14.6157	-0.00000615031
-17.4538	-0.00000641544
-20.3082	-0.00000622011
-23.1681	-0.00000644186
-26.0543	-0.00000632141
-29.0801	-0.00000638318
-31.996	-0.00000647223
-34.936	-0.00000639193
-37.833	-0.00000673048
-40.789	-0.00000690636
-43.649	-0.00000741677
-46.63	-0.00000751109
-49.49	-0.00000774933
-52.341	-0.00000762816
-55.281	-0.0000081512
-58.163	-0.00000690125
-61.078	-0.0000049366
-64.016	-0.00000365587
-67.024	-0.00000303449
-69.882	-0.00000332675
-72.858	-0.00000367253
-75.804	-0.00000436252
-78.718	-0.00000474371
-81.622	-0.00000464184
-84.621	-0.00000474406
-87.324	-0.00000491675
-90.338	-0.00000534038
-93.234	-0.00000569002
-96.198	-0.00000584283
-99.207	-0.00000560924
-102.12	-0.00000560987
-105.005	-0.00000583641
-107.945	-0.00000539606
-110.937	-0.00000602792
-113.827	-0.00000578383
-116.841	-0.00000568146
-119.708	-0.00000546753
-122.587	-0.0000057448
-125.582	-0.00000577142
-128.615	-0.00000577902
-131.547	-0.0000060491
-134.472	-0.00000559492
-137.387	-0.00000546069
-140.417	-0.00000557846
-143.373	-0.00000608132
-146.324	-0.00000577713
-149.254	-0.00000545182
-152.262	-0.00000551321
-155.008	-0.0000056872
-157.991	-0.00000557931
-160.943	-0.00000519539
-163.827	-0.00000543915
-166.866	-0.00000554027
-169.796	-0.00000541625
-172.747	-0.00000550439
-175.747	-0.00000564033
