Date/time start measurement:  7/30/2021 - 11:54 AM
Frequency(GHz):2.000000E+0
Power(dBm):1.100000E+1
Time between measurements:2.000000E+0
Samplename: 	

-181.219	-0.00000618994
-179.601	-0.00000603582
-177.346	-0.00000611016
-174.825	-0.00000642565
-172.298	-0.00000577663
-169.788	-0.00000652153
-167.33	-0.00000609612
-164.736	-0.00000595157
-162.27	-0.00000629151
-159.631	-0.00000612384
-157.014	-0.00000622917
-154.264	-0.00000670506
-151.674	-0.00000634562
-148.962	-0.00000593074
-146.146	-0.000005896
-143.601	-0.00000608582
-140.784	-0.00000606185
-138.043	-0.00000609394
-135.232	-0.00000621548
-132.685	-0.00000630954
-129.979	-0.00000589938
-127.102	-0.00000578631
-124.443	-0.00000569696
-121.688	-0.00000568631
-118.747	-0.00000560508
-116.194	-0.0000056661
-113.294	-0.00000597408
-110.509	-0.00000581307
-107.895	-0.00000594442
-105.037	-0.00000614877
-102.155	-0.00000550157
-99.302	-0.00000534419
-96.688	-0.00000512022
-93.853	-0.00000497301
-90.994	-0.000005058
-88.206	-0.00000530364
-85.447	-0.00000530436
-82.536	-0.0000050827
-79.705	-0.00000531357
-76.967	-0.00000512277
-73.952	-0.00000498876
-71.287	-0.00000497544
-68.558	-0.00000566792
-65.513	-0.00000549577
-62.785	-0.00000523924
-60.006	-0.00000497992
-57.011	-0.00000583124
-54.231	-0.0000053534
-51.394	-0.00000494954
-48.599	-0.00000532108
-45.768	-0.0000051499
-42.768	-0.00000512012
-40.018	-0.00000545863
-37.029	-0.00000567182
-34.336	-0.00000532497
-31.556	-0.0000050601
-28.718	-0.00000499203
-25.897	-0.00000503752
-22.998	-0.0000054024
-19.955	-0.00000514308
-17.2191	-0.00000486535
-14.405	-0.00000501861
-11.5546	-0.0000048804
-8.7543	-0.00000523731
-5.6363	-0.00000508356
-2.8546	-0.00000504736
-0.66475	-0.00000481722
1.80015	-0.00000458065
5.8686	-0.00000509843
8.5695	-0.00000547084
11.7725	-0.00000508585
14.5287	-0.00000557519
17.5053	-0.00000608535
20.675	-0.00000621014
23.707	-0.00000632561
26.6713	-0.0000063629
29.7623	-0.00000641519
32.859	-0.0000057732
35.785	-0.00000547626
38.571	-0.00000581136
41.787	-0.00000555313
44.716	-0.00000550884
47.858	-0.00000560254
50.6	-0.0000057414
53.719	-0.00000567832
56.741	-0.00000603548
59.791	-0.00000645653
62.923	-0.00000601465
65.828	-0.0000059448
68.846	-0.00000557943
71.674	-0.00000522399
74.847	-0.00000459227
77.735	-0.00000508875
80.666	-0.00000548535
83.696	-0.00000533657
86.685	-0.00000513246
89.763	-0.0000045487
92.765	-0.00000477932
95.862	-0.00000492641
98.861	-0.00000720178
101.927	-0.0000101499
104.652	-0.0000115281
107.692	-0.00000927303
110.74	-0.00000775903
113.878	-0.00000644793
116.944	-0.00000604564
119.787	-0.00000578293
122.81	-0.00000578765
125.83	-0.00000565848
128.877	-0.00000552216
131.857	-0.00000524372
134.941	-0.00000494021
138.03	-0.00000528949
140.9	-0.00000509773
143.879	-0.00000514192
146.836	-0.00000530222
149.961	-0.00000564738
152.953	-0.00000527836
155.96	-0.00000511202
159.216	-0.00000489968
162.122	-0.000005266
165.153	-0.00000495317
168.222	-0.00000501045
171.374	-0.00000514799
174.211	-0.00000529652
177.228	-0.0000049441
180.174	-0.00000486941
183.081	-0.00000542385
186.199	-0.00000529444
189.204	-0.00000524772
192.303	-0.00000539542
195.314	-0.00000568173
198.383	-0.00000561587
201.473	-0.00000560256
204.581	-0.00000546719
