Date/time start measurement:  7/30/2021 - 10:14 AM
Frequency(GHz):2.500000E+0
Power(dBm):1.000000E+1
Time between measurements:1.000000E+0
Samplename: 	

-256.74	-0.0000106327
-256.444	-0.0000101666
-254.126	-0.00000998163
-251.689	-0.0000100995
-249.306	-0.0000102522
-246.983	-0.0000101044
-244.547	-0.0000102161
-242.171	-0.00000986018
-239.641	-0.00000997579
-237.121	-0.0000101538
-234.614	-0.0000100551
-232.075	-0.00000996258
-229.358	-0.00000977468
-226.884	-0.00000949854
-224.295	-0.00000905679
-221.618	-0.00000943003
-219.066	-0.00000943281
-216.404	-0.00000984759
-213.683	-0.00000962277
-211.182	-0.00000966128
-208.572	-0.00000957666
-205.782	-0.00000959773
-203.235	-0.0000094263
-200.462	-0.00000957488
-197.666	-0.00000962924
-195.085	-0.00000965672
-192.341	-0.00000988927
-189.565	-0.00000934582
-186.949	-0.0000094906
-184.251	-0.00000971941
-181.622	-0.00000965049
-178.878	-0.00000945485
-176.206	-0.00000946342
-173.341	-0.00000919502
-170.66	-0.00000942722
-167.994	-0.00000936958
-165.12	-0.00000909089
-162.488	-0.0000094651
-159.598	-0.00000924513
-156.939	-0.00000919614
-154.195	-0.00000919529
-151.38	-0.00000941284
-148.707	-0.0000095971
-146.035	-0.00000991792
-143.211	-0.00000947545
-140.474	-0.00000965911
-137.694	-0.00000960886
-134.814	-0.00000947509
-132.15	-0.00000944286
-129.385	-0.00000977022
-126.524	-0.00000982905
-123.745	-0.00000961694
-120.981	-0.00000938753
-118.316	-0.0000096518
-115.6	-0.00000979756
-112.749	-0.0000100032
-109.746	-0.0000100225
-107.166	-0.0000101556
-104.361	-0.00000954518
-101.489	-0.00000962278
-98.688	-0.00000983029
-95.895	-0.00000927074
-92.965	-0.0000094717
-90.232	-0.00000888491
-87.496	-0.00000893069
-84.752	-0.00000910659
-81.992	-0.0000089532
-79.159	-0.00000867597
-76.34	-0.00000871895
-73.523	-0.00000870089
-70.747	-0.00000891311
-67.844	-0.0000092234
-64.999	-0.00000925064
-62.243	-0.00000930523
-59.317	-0.00000950765
-56.586	-0.000010001
-53.763	-0.0000102537
-50.998	-0.0000106287
-48.172	-0.000010838
-45.344	-0.0000110897
-42.435	-0.0000113062
-39.715	-0.0000111726
-36.694	-0.0000110482
-33.99	-0.0000108392
-31.236	-0.0000106519
-28.222	-0.0000102357
-25.278	-0.0000100068
-22.585	-0.00000995768
-19.753	-0.0000097394
-16.9911	-0.0000100188
-14.1485	-0.00000994132
-11.2232	-0.00000977827
-8.394	-0.00000989352
-5.535	-0.00000967416
-2.5966	-0.0000100836
0.33684	-0.0000100902
2.63246	-0.0000100212
6.3374	-0.00000956732
8.6902	-0.00000945776
11.5291	-0.00000933803
14.4525	-0.00000960013
17.0999	-0.00000980508
19.8929	-0.00000955872
22.9135	-0.00000969818
25.7081	-0.00000941647
28.5669	-0.00000951226
31.921	-0.00000965451
34.312	-0.00000995135
37.155	-0.00000944664
40.127	-0.00000929434
43.035	-0.00000921856
45.855	-0.00000935645
48.622	-0.00000931953
51.41	-0.00000960741
54.347	-0.00000935161
57.318	-0.00000937013
60.133	-0.00000915597
63.06	-0.00000966347
65.994	-0.00000943321
68.772	-0.00000919047
71.7	-0.00000934313
74.579	-0.00000958501
77.431	-0.00000956237
80.288	-0.00000950946
83.047	-0.00000926225
85.978	-0.0000092332
88.891	-0.00000956878
91.723	-0.00000955825
94.561	-0.00000992814
97.494	-0.0000107958
100.312	-0.0000121016
103.272	-0.0000128557
106.252	-0.0000136909
109.02	-0.0000138003
111.849	-0.0000129829
114.848	-0.000012971
117.63	-0.000012916
120.357	-0.0000115674
123.342	-0.0000111975
126.243	-0.0000107045
128.994	-0.0000104599
131.993	-0.0000103213
134.901	-0.0000103546
137.735	-0.000010405
140.767	-0.0000103464
143.716	-0.0000102027
146.53	-0.000010231
149.339	-0.000010268
152.176	-0.0000101737
154.974	-0.0000101521
157.997	-0.0000102117
161.016	-0.0000100295
163.801	-0.00000998793
166.711	-0.0000100415
169.593	-0.0000100626
172.574	-0.0000100206
175.498	-0.0000097303
178.371	-0.0000100473
181.231	-0.0000102148
184.076	-0.0000100627
187.006	-0.00000990083
189.863	-0.000010254
192.811	-0.0000103604
195.792	-0.000010068
198.615	-0.0000100623
201.688	-0.0000101289
204.644	-0.0000102168
207.603	-0.0000103978
210.428	-0.00000998344
213.275	-0.0000102999
216.284	-0.0000102884
219.14	-0.0000104368
221.991	-0.0000104357
225.126	-0.0000102513
227.946	-0.0000102685
230.792	-0.0000102621
233.744	-0.0000102275
236.759	-0.0000101962
239.58	-0.0000100281
242.59	-0.00000984142
245.464	-0.00000981966
248.347	-0.0000100011
251.251	-0.00000964086
254.038	-0.00000962452
257.032	-0.00000953517
260.056	-0.00000963759
262.969	-0.00000964522
265.76	-0.00000961409
268.848	-0.00000955284
271.659	-0.00000954021
274.664	-0.00000966805
277.635	-0.000009239
280.395	-0.00000939541
283.3	-0.00000975787
286.293	-0.00000950279
289.127	-0.00000976053
292.089	-0.00000982251
295.127	-0.00000985955
297.893	-0.00000990384
301.27	-0.00000942129
303.83	-0.00000930601
