Date/time start measurement:  7/30/2021 - 10:21 AM
Frequency(GHz):2.500000E+0
Power(dBm):1.100000E+1
Time between measurements:2.000000E+0
Samplename: 	

-256.164	-0.0000121279
-254.773	-0.0000121683
-252.55	-0.0000121081
-250.282	-0.0000120925
-248.027	-0.0000117584
-245.494	-0.0000122015
-243.313	-0.0000122008
-240.814	-0.0000117862
-238.407	-0.0000116043
-235.825	-0.0000114573
-233.334	-0.0000114419
-230.749	-0.0000118264
-228.166	-0.0000117431
-225.608	-0.0000121536
-222.984	-0.0000117962
-220.281	-0.0000117312
-217.856	-0.000011995
-214.984	-0.0000114578
-212.367	-0.0000117268
-209.953	-0.0000116191
-207.076	-0.0000118608
-204.517	-0.000011703
-201.908	-0.0000117672
-199.204	-0.0000122788
-196.421	-0.0000117753
-193.638	-0.0000118687
-191.089	-0.0000122025
-188.21	-0.0000115022
-185.594	-0.0000115221
-183.026	-0.0000115768
-180.383	-0.0000117346
-177.559	-0.0000118989
-174.839	-0.0000119615
-172.109	-0.0000119025
-169.292	-0.0000116543
-166.689	-0.0000119083
-163.812	-0.0000114014
-161.269	-0.0000112387
-158.316	-0.0000114096
-155.676	-0.0000118214
-152.874	-0.0000116418
-150.259	-0.0000117966
-147.504	-0.0000114884
-144.653	-0.0000117124
-142.025	-0.0000120942
-139.143	-0.0000113954
-136.532	-0.00001139
-133.746	-0.0000116271
-130.917	-0.0000115249
-128.059	-0.000011407
-125.257	-0.0000111104
-122.755	-0.0000111967
-119.967	-0.0000111816
-117.07	-0.0000114436
-114.428	-0.0000108168
-111.485	-0.000010903
-108.759	-0.0000109051
-106.032	-0.0000113328
-103.234	-0.0000111663
-100.364	-0.0000113504
-97.541	-0.0000106006
-94.794	-0.0000108519
-91.952	-0.0000104287
-89.208	-0.0000103766
-86.341	-0.00000995399
-83.7	-0.00000981719
-80.866	-0.0000107506
-77.954	-0.0000112301
-75.062	-0.0000111135
-72.401	-0.0000105335
-69.476	-0.0000105944
-66.691	-0.0000108054
-64.025	-0.0000100697
-61.189	-0.0000110539
-58.338	-0.0000116057
-55.566	-0.0000111261
-52.675	-0.0000123241
-49.94	-0.000012432
-47.183	-0.0000128986
-44.223	-0.0000131493
-41.372	-0.0000134071
-38.569	-0.0000132682
-35.582	-0.0000127802
-32.857	-0.0000126319
-30.091	-0.0000128059
-27.157	-0.0000125978
-24.267	-0.0000121139
-21.644	-0.0000124161
-17.934	-0.0000124535
-15.9759	-0.0000127554
-13.1544	-0.0000129936
-10.3737	-0.0000126972
-7.3671	-0.0000131148
-4.5423	-0.0000125168
-1.6189	-0.0000128772
0.09093	-0.0000128039
3.03542	-0.000012527
6.9361	-0.000012872
9.5788	-0.0000127078
12.6115	-0.0000120368
15.3936	-0.0000124719
18.0738	-0.0000129013
20.9271	-0.0000126752
23.7626	-0.0000126132
26.5601	-0.0000125974
29.6162	-0.0000127126
32.628	-0.0000126073
35.289	-0.0000123919
38.051	-0.0000127451
41.006	-0.0000121631
43.938	-0.0000120867
46.75	-0.0000120947
49.39	-0.0000120632
52.391	-0.0000117196
55.322	-0.0000121398
58.212	-0.0000118927
61.055	-0.0000118491
63.878	-0.0000116581
66.742	-0.0000118712
69.663	-0.0000119359
72.518	-0.0000118516
75.607	-0.0000124053
78.327	-0.0000120373
81.04	-0.0000122752
83.848	-0.0000122409
86.789	-0.0000118744
89.722	-0.0000124069
92.459	-0.0000121988
95.361	-0.0000119492
98.223	-0.0000123317
101.283	-0.0000140918
104.143	-0.0000146264
106.947	-0.000015886
109.764	-0.0000164095
112.806	-0.0000157439
115.496	-0.0000154348
118.407	-0.0000149578
121.305	-0.0000136752
124.096	-0.0000126609
127.067	-0.0000121772
129.759	-0.000011999
132.836	-0.0000123002
135.73	-0.0000124743
138.433	-0.0000120622
141.632	-0.0000125167
144.265	-0.0000124301
147.286	-0.000012676
150.098	-0.0000124654
152.949	-0.0000126766
155.703	-0.0000121966
158.721	-0.0000126013
161.737	-0.0000125527
164.575	-0.0000127204
167.606	-0.0000123766
170.379	-0.0000119462
173.38	-0.0000121368
176.169	-0.0000122285
179.045	-0.0000124718
182.023	-0.0000117964
184.818	-0.0000116613
187.584	-0.0000120883
190.603	-0.0000128884
193.547	-0.0000125753
196.335	-0.0000128418
199.36	-0.0000122602
202.298	-0.0000124563
205.299	-0.000012433
208.059	-0.000012325
211.008	-0.0000127068
213.989	-0.0000124127
216.69	-0.0000130065
219.492	-0.0000128376
222.545	-0.000012722
225.468	-0.0000116235
228.333	-0.0000120613
231.434	-0.000012055
234.338	-0.0000117877
237.224	-0.0000119519
240.138	-0.0000128622
243.105	-0.0000126503
245.928	-0.0000116347
248.82	-0.000011908
251.539	-0.0000123069
254.555	-0.0000121983
257.492	-0.0000124685
260.466	-0.0000122246
263.316	-0.0000118887
266.293	-0.0000124321
269.081	-0.0000122416
272.092	-0.0000127176
275.022	-0.0000118989
277.898	-0.000012021
280.962	-0.0000123743
283.764	-0.0000124302
286.495	-0.0000119458
289.397	-0.0000116746
292.564	-0.0000117205
295.404	-0.000011864
298.245	-0.0000119243
302.19	-0.0000117868
304.11	-0.0000114241
