Date/time start measurement:  7/30/2021 - 12:16 PM
Frequency(GHz):3.000000E+0
Power(dBm):1.100000E+1
Time between measurements:2.000000E+0
Samplename: 	

304.78	-0.00000940906
302.865	-0.0000092577
300.45	-0.00000891581
298.005	-0.00000889456
295.515	-0.00000898192
292.895	-0.0000091668
290.31	-0.00000914505
287.72	-0.00000886222
285.09	-0.00000906154
282.505	-0.00000909525
279.885	-0.00000880193
277.15	-0.00000868605
274.425	-0.00000877731
271.825	-0.0000085449
269.01	-0.0000086072
266.325	-0.00000867714
263.555	-0.00000899384
260.755	-0.00000883587
258.06	-0.00000899033
255.375	-0.00000922298
252.67	-0.000008818
249.935	-0.00000869514
247.225	-0.00000837427
244.345	-0.00000893739
241.595	-0.00000891415
238.875	-0.00000895887
236.05	-0.00000893478
233.225	-0.00000885018
230.52	-0.00000872468
227.595	-0.00000872816
224.855	-0.00000880369
222.14	-0.0000087834
219.29	-0.00000888789
216.49	-0.00000858314
213.725	-0.00000878019
210.895	-0.0000087689
208.03	-0.00000876469
205.125	-0.0000086734
202.27	-0.00000867624
199.6	-0.00000874288
196.719	-0.00000845947
193.959	-0.00000867137
191.18	-0.00000858225
188.375	-0.00000858944
185.516	-0.0000088789
182.758	-0.00000866523
179.863	-0.00000896174
176.999	-0.00000904387
174.252	-0.00000899121
171.286	-0.0000087304
168.506	-0.00000859084
165.589	-0.00000893258
162.707	-0.00000940536
159.873	-0.0000091973
157.046	-0.0000092748
154.175	-0.000009429
151.445	-0.00000959908
148.574	-0.0000099584
145.538	-0.00000989297
142.676	-0.00000981038
139.845	-0.00000977932
136.915	-0.00000975231
134.073	-0.0000097135
131.221	-0.0000100287
128.278	-0.0000100783
125.437	-0.0000101282
122.672	-0.0000104654
119.814	-0.0000102879
116.896	-0.00000982605
114.08	-0.0000100397
111.097	-0.0000101135
108.226	-0.0000102192
105.397	-0.00001048
102.413	-0.00001063
99.5435	-0.0000107209
96.6325	-0.0000104313
93.698	-0.0000106076
90.795	-0.0000105485
88.1405	-0.0000104902
85.0745	-0.0000103818
82.329	-0.0000106801
79.2825	-0.00000985235
76.3645	-0.00000941417
73.525	-0.00000919399
70.555	-0.00000885879
67.65	-0.00000861075
64.8135	-0.00000850225
61.8005	-0.00000843721
58.7975	-0.00000871749
55.996	-0.00000889935
53.026	-0.00000894323
50.202	-0.00000846871
47.3205	-0.000007999
44.3915	-0.00000828536
41.424	-0.0000083513
38.5285	-0.0000080894
35.51	-0.000007994
32.5435	-0.00000820016
29.749	-0.00000807859
26.651	-0.00000797702
23.734	-0.00000804716
21.0495	-0.00000789827
17.6296	-0.00000799764
15.1486	-0.00000788449
12.3558	-0.00000778658
9.25615	-0.00000793386
6.3943	-0.00000798893
3.4967	-0.00000799816
-0.066175	-0.00000781399
-1.97585	-0.00000761002
-5.44965	-0.00000785322
-8.2932	-0.00000785289
-11.3082	-0.00000789639
-14.1675	-0.00000817802
-17.0561	-0.000008144
-19.9526	-0.00000824131
-22.8133	-0.00000786137
-25.8826	-0.00000819243
-28.8568	-0.0000085909
-32.286	-0.00000870393
-34.8065	-0.00000848
-37.731	-0.00000859063
-40.756	-0.00000847875
-43.707	-0.00000851895
-46.578	-0.00000840015
-49.4925	-0.00000857117
-52.3785	-0.00000823898
-55.284	-0.00000835369
-58.3365	-0.00000853497
-61.295	-0.00000839562
-64.16	-0.00000831147
-67.1985	-0.0000080724
-70.1165	-0.00000878965
-73.026	-0.00000872332
-76.1265	-0.00000851574
-78.9845	-0.00000856817
-81.921	-0.00000874352
-84.78	-0.00000877092
-87.7535	-0.00000866895
-90.6385	-0.00000858694
-93.7175	-0.00000876432
-96.6405	-0.00000885098
-99.5625	-0.00000886391
-102.605	-0.00000881821
-105.497	-0.00000881667
-108.428	-0.00000915418
-111.439	-0.0000090006
-114.47	-0.0000092517
-117.425	-0.00000972456
-120.342	-0.00000960747
-123.208	-0.00000962793
-126.17	-0.0000095178
-129.235	-0.00000922676
-132.104	-0.00000839165
-135.071	-0.00000832774
-138.089	-0.00000779347
-141.034	-0.00000744708
-143.964	-0.00000690072
-147.089	-0.00000690335
-149.928	-0.0000069141
-152.767	-0.00000684544
-155.753	-0.00000677255
-158.702	-0.00000696576
-161.632	-0.00000707176
-164.712	-0.00000726455
-167.63	-0.00000727268
-170.773	-0.00000755974
-173.654	-0.0000073093
-176.59	-0.00000737833
-179.688	-0.00000739398
-182.655	-0.00000764359
-185.601	-0.00000775086
-188.514	-0.0000076864
-191.522	-0.00000789802
-194.383	-0.00000804596
-197.461	-0.00000816701
-200.44	-0.00000805638
-203.411	-0.00000811645
-206.424	-0.00000811288
-209.472	-0.00000802255
-212.36	-0.00000833269
-215.392	-0.00000804975
-218.441	-0.00000805589
-221.269	-0.00000812803
-224.295	-0.00000818776
-227.246	-0.00000848916
-230.236	-0.00000846533
-233.278	-0.00000805077
-236.219	-0.00000836442
-239.158	-0.00000832088
-242.244	-0.00000847512
-245.199	-0.00000828608
-248.176	-0.00000793385
-251.239	-0.00000776311
-254.178	-0.00000765293
-256.998	-0.00000785535
-260.028	-0.00000773638
-263.038	-0.00000792361
-266.01	-0.00000785904
-269.061	-0.00000797438
-272.103	-0.00000789276
