Date/time start measurement:  7/30/2021 - 12:32 PM
Frequency(GHz):4.000000E+0
Power(dBm):1.100000E+1
Time between measurements:2.000000E+0
Samplename: 	

405.265	-0.00000575525
402.25	-0.00000571712
398.285	-0.00000574293
394.11	-0.00000550934
390.12	-0.00000561339
385.82	-0.00000545865
381.425	-0.00000535386
376.945	-0.00000544667
372.435	-0.00000534273
368.01	-0.00000567729
363.4	-0.00000589349
359.015	-0.00000562047
354.42	-0.00000561522
349.78	-0.00000569184
345.265	-0.00000581905
340.695	-0.00000582452
336.025	-0.00000593383
331.32	-0.00000570841
326.79	-0.000005627
322.13	-0.00000548652
317.43	-0.00000546314
312.675	-0.00000531324
308.005	-0.00000534416
303.31	-0.00000555304
298.5	-0.00000550632
294	-0.00000565572
289.36	-0.00000574657
284.545	-0.0000056525
279.81	-0.0000054694
275.06	-0.00000542115
270.26	-0.00000541485
265.43	-0.00000559841
260.745	-0.00000556838
255.995	-0.00000572749
251.165	-0.00000580557
246.475	-0.00000573765
241.745	-0.00000590719
236.815	-0.00000586911
232.11	-0.0000059963
227.34	-0.00000609357
222.495	-0.00000637619
217.68	-0.00000636185
212.805	-0.00000629876
207.955	-0.00000651217
203.035	-0.00000665077
198.638	-0.0000066983
193.745	-0.00000669531
188.923	-0.00000670053
184.082	-0.00000676418
179.216	-0.00000675324
174.308	-0.00000688058
169.452	-0.00000676614
164.548	-0.0000066256
159.784	-0.0000064273
154.928	-0.000006288
150.105	-0.00000634126
145.202	-0.00000615576
140.344	-0.00000557756
135.471	-0.00000521907
130.594	-0.00000515681
125.806	-0.00000548712
120.857	-0.00000529264
116.053	-0.00000533052
111.066	-0.0000053606
106.117	-0.00000570395
101.376	-0.00000570728
96.4495	-0.00000570514
91.666	-0.00000572655
86.7825	-0.00000574599
81.813	-0.00000567
76.9275	-0.00000567065
71.924	-0.00000550697
67.042	-0.00000566367
62.0025	-0.0000056655
57.1415	-0.00000570729
52.3695	-0.0000056343
47.4705	-0.00000548603
42.459	-0.00000539047
37.558	-0.00000547298
32.4875	-0.00000532604
27.5775	-0.00000534492
22.75	-0.00000527196
18.3736	-0.00000536718
12.9191	-0.00000545226
7.9084	-0.00000535961
3.02045	-0.00000536465
-1.1231	-0.00000527153
-7.53265	-0.00000503394
-11.7772	-0.00000503598
-16.6324	-0.00000507621
-21.5642	-0.00000515617
-26.593	-0.00000507374
-31.3034	-0.0000051146
-36.5575	-0.00000488172
-41.595	-0.00000503708
-46.457	-0.000004962
-51.2925	-0.00000504578
-56.1885	-0.00000523501
-61.2025	-0.00000522327
-66.158	-0.00000536428
-71.181	-0.00000538788
-76.1525	-0.00000548694
-81.0265	-0.00000535675
-86.029	-0.00000548421
-90.9925	-0.00000524083
-96.039	-0.00000528257
-100.962	-0.00000550945
-105.776	-0.00000539511
-110.828	-0.00000525716
-115.814	-0.00000526986
-120.716	-0.00000521131
-125.692	-0.00000526918
-130.737	-0.00000536755
-135.779	-0.00000539467
-140.772	-0.00000537374
-145.807	-0.00000554248
-150.548	-0.00000539052
-155.517	-0.00000549838
-160.471	-0.00000558615
-165.492	-0.00000576138
-170.552	-0.00000579654
-175.527	-0.00000579651
-180.595	-0.00000575494
-185.49	-0.000005891
-190.428	-0.00000590389
-195.437	-0.00000550944
-200.386	-0.00000539584
-205.397	-0.00000508813
-210.399	-0.00000489963
-215.447	-0.00000476673
-220.31	-0.0000046736
-225.271	-0.00000461221
-230.347	-0.00000438617
-235.305	-0.00000443381
-240.44	-0.00000444778
-245.444	-0.00000448535
-250.271	-0.00000432251
-255.179	-0.00000439544
-260.18	-0.00000441081
-265.137	-0.000004644
-270.219	-0.00000442342
-275.202	-0.0000045377
-280.262	-0.00000472569
-285.238	-0.00000486408
-290.246	-0.00000489985
-295.231	-0.00000479272
-300.227	-0.00000492946
-305.035	-0.00000498599
-310.1	-0.00000471966
-315.18	-0.00000478948
-320.2	-0.00000470567
-325.105	-0.00000486491
-330.05	-0.00000488177
