Date/time start measurement:  11/15/2021 - 10:19 AM
Frequency(GHz):8.000000E+0
Power(dBm):9.000000E+0
Time between measurements:1.000000E+0
Samplename: 	

-1189.88	-0.000000838496
-1189.29	-0.000000749637
-1181.45	-0.000000594072
-1173.37	-0.000000596251
-1164.97	-0.000000570102
-1156.44	-0.000000545527
-1147.87	-0.00000052192
-1139.26	-0.000000487054
-1130.49	-0.000000484027
-1121.48	-0.00000051853
-1112.62	-0.000000494438
-1103.24	-0.000000497828
-1094.36	-0.000000501702
-1084.99	-0.000000476157
-1075.87	-0.000000513929
-1066.83	-0.00000051986
-1057.19	-0.000000465867
-1048.27	-0.00000048681
-1038.66	-0.000000445165
-1029.37	-0.000000474583
-1019.99	-0.000000484268
-1010.54	-0.000000485478
-1000.93	-0.000000511144
-991.33	-0.000000518166
-981.92	-0.000000493348
-972.26	-0.000000496012
-962.57	-0.00000047967
-953.13	-0.000000527248
-943.22	-0.000000496861
-934.03	-0.000000548676
-924.35	-0.000000556424
-914.53	-0.000000530151
-904.92	-0.000000567439
-895.35	-0.000000569012
-885.59	-0.000000589351
-875.82	-0.000000619011
-865.99	-0.000000610051
-856.34	-0.000000624821
-846.79	-0.000000669614
-837.12	-0.000000651818
-826.97	-0.000000681238
-817.32	-0.000000663926
-807.36	-0.000000699759
-797.68	-0.000000740557
-788.07	-0.000000757869
-778.12	-0.000000809077
-768.1	-0.000000806898
-758.19	-0.000000867187
-748.46	-0.000000889947
-738.52	-0.000000899027
-728.63	-0.000000959073
-718.75	-0.00000097893
-708.81	-0.00000103801
-699.01	-0.0000010776
-688.99	-0.00000107166
-679.08	-0.00000115447
-669.07	-0.00000114103
-659.09	-0.00000118607
-649.29	-0.00000119043
-639.54	-0.00000115677
-629.47	-0.00000115883
-619.3	-0.00000107578
-609.49	-0.00000100096
-599.49	-0.000000834625
-589.44	-0.000000688987
-579.4	-0.000000580393
-569.55	-0.000000360786
-559.48	-0.000000277979
-549.59	-0.000000119629
-539.65	-0.0000000348855
-529.54	0.0000000325465
-519.44	0.000000147677
-509.34	0.000000197918
-499.58	0.000000248401
-489.41	0.000000271767
-479.27	0.000000333993
-469.37	0.000000377455
-459.24	0.000000336293
-449.25	0.000000398762
-439.21	0.000000349731
-429.16	0.000000408689
-418.94	0.000000362564
-408.88	0.000000377939
-399.03	0.000000355421
-388.84	0.000000341499
-378.89	0.000000359658
-368.72	0.000000369585
-358.67	0.000000373096
-348.45	0.000000378907
-338.61	0.00000037588
-328.5	0.000000390166
-318.19	0.000000389318
-307.82	0.000000370433
-297.89	0.000000382297
-288.04	0.00000037927
-277.83	0.000000415467
-267.5	0.000000415588
-257.48	0.000000402634
-247.07	0.000000428662
-237.21	0.000000427695
-227.1	0.000000416315
-216.8	0.000000452149
-206.45	0.000000432174
-195.918	0.000000443191
-186.453	0.000000419705
-176.205	0.000000401304
-166.239	0.000000445857
-155.99	0.000000443799
-145.876	0.000000450939
-135.841	0.000000440044
-125.537	0.000000479752
-115.489	0.000000449729
-104.816	0.000000474547
-94.781	0.000000426727
-84.8	0.000000426364
-74.41	0.000000452997
-63.969	0.000000407841
-53.814	0.000000379633
-43.662	0.000000347067
-33.451	0.000000325155
-23.273	0.000000304574
-12.3755	0.000000285083
-2.7506	0.000000288473
7.507	0.000000246101
17.6831	0.000000236537
27.9726	0.000000263777
38.899	0.000000321645
48.507	0.000000488469
58.704	0.00000068677
68.759	0.000000630477
79.006	0.000000555175
89.347	0.000000529268
99.458	0.000000506145
109.769	0.0000005352
119.964	0.000000470068
130.12	0.000000475395
140.376	0.000000435202
150.657	0.000000406873
161.08	0.000000405541
171.038	0.000000359537
181.338	0.00000036208
191.596	0.000000339441
201.843	0.000000365106
212.183	0.000000338593
222.387	0.00000032794
232.585	0.000000295011
242.828	0.000000313654
253.212	0.000000351305
263.487	0.000000356148
273.492	0.000000354816
283.793	0.000000362079
294.095	0.000000380118
305.14	0.000000354937
314.52	0.000000332419
324.96	0.000000367769
335.01	0.000000354331
345.19	0.000000333992
355.42	0.000000321159
365.87	0.000000279514
376.2	0.000000282419
386.21	0.000000274792
396.61	0.000000279756
406.83	0.000000243558
416.98	0.000000225036
427.35	0.000000224068
437.57	0.000000215714
447.92	0.000000270435
458.1	0.000000270315
468.14	0.000000333267
478.72	0.000000359417
488.65	0.00000038835
498.79	0.0000004714
509.4	0.000000561952
519.7	0.00000064718
529.72	0.000000771752
540.12	0.000000887003
550.27	0.00000108578
560.4	0.00000122984
570.86	0.00000138153
581.36	0.00000155599
591.58	0.00000166591
601.96	0.00000180017
612.06	0.00000185526
622.27	0.00000195235
632.41	0.00000196494
642.61	0.00000192814
652.9	0.00000191446
662.97	0.00000186023
673.43	0.00000182258
683.69	0.00000179304
694.07	0.00000176447
704.08	0.00000170273
714.45	0.00000165576
724.87	0.00000166411
735.05	0.00000159922
745.27	0.00000161678
755.71	0.00000158264
765.73	0.00000150479
776.09	0.00000149244
786.39	0.0000014548
796.49	0.00000142974
806.7	0.00000141291
816.96	0.00000135661
827.09	0.00000139136
837.57	0.0000013732
847.44	0.00000132683
857.94	0.0000013646
868.35	0.00000132138
878.49	0.00000134826
888.83	0.00000131811
899.15	0.00000127526
909.07	0.00000128676
919.42	0.00000126957
929.78	0.00000126448
940.09	0.00000128034
950.28	0.00000121424
960.45	0.00000122852
970.65	0.00000120395
980.94	0.0000012209
990.93	0.00000121968
1001.4	0.00000119014
1011.48	0.0000011617
1021.74	0.00000117732
1031.95	0.00000125843
1042.24	0.00000123337
1052.57	0.00000120516
1062.54	0.00000123034
1072.75	0.00000121848
1083.07	0.00000119862
1093.21	0.00000117042
1103.35	0.00000112211
1113.37	0.00000110916
1123.66	0.00000111654
1134.01	0.00000110892
1144.31	0.00000108882
1154.57	0.00000109136
1164.54	0.00000106836
1174.76	0.00000106703
1185.01	0.00000109947
1195.3	0.00000107562
1205.35	0.00000108252
