Date/time start measurement:  1/31/2022 - 12:27 PM
Frequency(GHz):4.000000E+0
Power(dBm):9.000000E+0
Time between measurements:1.000000E+0
Samplename: 	

709.59	-0.00000102688
709.1	-0.000000896283
705.11	-0.00000068269
701.19	-0.000000647388
697.26	-0.000000612998
693.05	-0.000000595126
688.86	-0.000000566143
684.54	-0.000000555664
680.22	-0.000000510128
675.85	-0.000000504781
671.61	-0.000000467348
667.12	-0.000000491307
662.64	-0.000000471436
658.11	-0.000000472768
653.8	-0.00000044565
649.3	-0.000000461275
644.85	-0.000000500467
640.19	-0.00000051355
635.78	-0.000000530127
631.09	-0.000000517872
626.55	-0.000000528925
621.81	-0.000000557911
617.26	-0.000000568875
612.63	-0.000000545228
608.25	-0.000000592345
603.52	-0.000000610234
598.84	-0.00000060521
594.02	-0.000000612078
589.54	-0.000000592833
584.77	-0.000000598212
580.24	-0.00000062458
575.45	-0.000000595028
570.77	-0.000000603676
566.12	-0.000000607926
561.34	-0.000000627074
556.73	-0.000000619996
552.11	-0.000000649781
547.4	-0.000000670672
542.73	-0.000000710615
537.88	-0.00000074718
533.29	-0.000000782324
528.44	-0.000000873052
523.62	-0.000000937893
518.83	-0.00000101569
514.28	-0.00000113942
509.55	-0.00000124707
504.63	-0.00000137521
499.92	-0.00000153158
495.13	-0.00000170773
490.33	-0.00000166598
485.62	-0.00000101245
480.93	0.000000185557
476.08	0.000000914633
471.23	0.00000106088
466.58	0.00000101487
461.84	0.000000895432
457.05	0.000000775604
452.18	0.000000673403
447.47	0.000000541735
442.57	0.000000532773
437.76	0.00000046997
432.82	0.000000357878
428.13	0.000000327152
423.17	0.000000293981
418.34	0.000000284518
413.71	0.000000208071
408.98	0.000000183899
404.01	0.0000000912779
399.14	0.00000000191732
394.23	-0.000000116829
389.53	-0.000000181044
384.62	-0.000000213775
379.88	-0.000000219748
375.05	-0.000000238472
370.19	-0.000000230801
365.33	-0.0000003196
360.67	-0.000000222169
355.66	-0.000000250498
350.77	-0.000000304032
345.95	-0.000000129799
341.18	-0.0000000909133
336.2	-0.000000013651
331.22	0.000000065274
326.31	-0.0000000591464
321.43	-0.000000130888
316.55	0.0000000236845
311.97	-0.000000193477
307.09	-0.000000151267
302.18	-0.000000232677
297.24	-0.000000146699
292.42	-0.000000515398
