Date/time start measurement:  3/14/2022 - 11:48 AM
Frequency(GHz):3.000000E+0
Power(dBm):1.800000E+1
Time between measurements:1.000000E+0
Samplename: 	

37.967	0.00000222726
38.395	0.00000282011
40.529	0.00000272737
42.884	0.0000026273
45.197	0.00000240546
47.652	0.00000249465
50.088	0.00000283909
52.575	0.00000262772
55.023	0.00000260077
57.673	0.00000232966
60.191	0.00000259892
62.311	0.00000229616
63.287	0.00000249004
67.817	0.00000275656
70.263	0.00000263967
72.865	0.00000279388
75.13	0.00000266224
77.583	0.00000262364
80.108	0.00000324668
82.347	0.00000287682
85.084	0.00000318774
88.126	0.00000318362
90.884	0.00000309616
94.851	0.00000292839
97.533	0.00000289869
99.919	0.00000332862
102.798	0.00000387003
105.66	0.00000398311
108.738	0.00000393081
113.93	0.00000370242
116.768	0.00000367715
119.193	0.00000400737
122.068	0.00000407524
123.947	0.00000425949
126.156	0.00000437692
129.781	0.00000439111
132.927	0.00000442522
135.14	0.00000465407
137.661	0.00000424225
138.568	0.0000047533
142.818	0.00000467834
145.012	0.00000525324
148.057	0.00000520192
151.195	0.00000564414
153.938	0.00000564086
156.747	0.00000600075
159.87	0.00000595068
162.7	0.00000677424
165.471	0.00000581912
168.121	0.00000618591
170.753	0.00000701082
173.692	0.00000977761
176.654	0.0000116256
179.438	0.0000139649
182.151	0.0000172221
184.969	0.0000220318
187.941	0.0000274767
190.797	0.0000332622
193.63	0.0000344093
196.352	0.0000258251
199.467	0.0000108431
203.289	0.00000425188
206.599	0.00000206459
209.127	0.0000015619
211.639	0.000000649988
214.141	0.000000811725
216.657	0.000000851048
219.955	0.00000118776
222.196	0.000000701737
225.243	0.000000600947
227.632	0.00000103944
230.303	0.000000530624
233.444	0.000000643928
236.163	0.00000110259
239.02	0.000000826664
242.212	0.00000112219
246.024	0.00000140777
248.678	0.00000151387
250.902	0.00000113918
251.801	0.00000126383
256.802	0.000000962288
259.513	0.00000119362
262.288	0.00000138429
265.031	0.0000011817
267.737	0.00000133063
270.437	0.00000176751
273.286	0.00000196093
276.37	0.00000180133
279.333	0.00000205907
282.011	0.00000237998
284.463	0.00000259103
287.586	0.0000020369
290.937	0.00000259172
293.979	0.00000228943
296.714	0.00000261906
299.416	0.00000243845
302.36	0.00000206676
305.38	0.00000211069
308.28	0.00000213982
311.15	0.00000230452
314.05	0.00000282152
