Date/time start measurement:  3/14/2022 - 11:53 AM
Frequency(GHz):4.000000E+0
Power(dBm):1.800000E+1
Time between measurements:1.000000E+0
Samplename: 	

134.529	-0.00000851842
134.862	-0.00000652105
137.445	-0.00000545636
140.67	-0.00000492504
143.951	-0.00000445645
147.269	-0.00000425942
150.574	-0.00000387269
153.93	-0.00000377001
157.39	-0.00000374266
160.65	-0.0000036507
164.026	-0.00000365779
167.42	-0.00000368947
170.968	-0.00000358967
174.326	-0.00000366083
177.892	-0.0000035605
181.687	-0.00000359086
185.464	-0.00000344657
188.621	-0.00000336026
189.661	-0.00000332063
195.995	-0.00000331468
199.833	-0.0000032755
204.597	-0.00000313882
208.945	-0.00000308553
212.118	-0.00000326265
215.924	-0.00000320929
220.738	-0.00000321183
223.816	-0.00000333568
227.087	-0.00000324843
230.505	-0.0000032438
234.071	-0.00000328
237.862	-0.00000304836
241.524	-0.00000308688
245.254	-0.00000295541
248.951	-0.0000031227
252.709	-0.00000313062
256.362	-0.00000311878
260.128	-0.00000304186
264.504	-0.00000291037
268.053	-0.00000279692
271.616	-0.00000267536
275.293	-0.00000273976
279.013	-0.00000268219
282.536	-0.00000290595
286.32	-0.00000273109
289.941	-0.00000274224
293.713	-0.00000272661
297.331	-0.0000023987
301.1	-0.0000023281
304.82	-0.00000225339
308.22	-0.00000186069
313	-0.00000125856
316.75	-0.000000689534
320.65	-0.0000000446412
324.63	0.00000117187
328.15	0.00000318555
332.06	0.00000583627
335.94	0.00000963488
340.06	0.0000121764
344.71	0.00000927576
348.4	0.00000362233
351.96	-0.000000135289
355.7	-0.00000214489
359.41	-0.00000327039
363.08	-0.00000358829
367.05	-0.00000397723
370.81	-0.00000406237
374.34	-0.00000424751
378.34	-0.00000431754
382.24	-0.00000409322
386.11	-0.00000424341
389.73	-0.00000439946
393.94	-0.00000428363
397.78	-0.00000423233
401.67	-0.00000425054
405.57	-0.00000420772
409.53	-0.00000411339
