Date/time start measurement:  3/14/2022 - 11:57 AM
Frequency(GHz):5.000000E+0
Power(dBm):1.800000E+1
Time between measurements:1.000000E+0
Samplename: 	

317.39	-0.0000178171
318.2	-0.0000157135
322.55	-0.0000147507
326.96	-0.0000141217
331.63	-0.000013764
336.12	-0.0000134856
340.91	-0.0000133403
345.47	-0.0000131201
350.41	-0.0000130312
356.36	-0.0000129519
360.97	-0.0000128795
365.25	-0.0000127058
370.04	-0.0000126921
374.51	-0.0000127584
379.24	-0.0000126629
383.88	-0.0000126082
388.24	-0.0000125769
389.47	-0.0000125211
398.16	-0.0000125501
402.9	-0.0000125558
407.8	-0.0000125395
412.67	-0.0000125313
417.41	-0.0000125256
422.23	-0.0000125956
427.03	-0.0000126047
432.89	-0.0000125542
437.64	-0.000012448
442.63	-0.0000122752
447.27	-0.000012276
452.05	-0.0000122823
456.8	-0.000012197
462.03	-0.0000122905
466.9	-0.0000121732
472.04	-0.0000119686
477.45	-0.0000119192
482.53	-0.0000121026
487.07	-0.0000117662
492.37	-0.0000116761
496.87	-0.0000112619
501.11	-0.0000108446
506.11	-0.0000101349
511.13	-0.0000090132
516.06	-0.00000708323
520.93	-0.00000409376
525.85	-0.00000162564
531.16	-0.000002485
536.64	-0.00000747088
541.24	-0.0000105958
545.87	-0.0000122742
550.55	-0.000013057
555.03	-0.0000137472
560	-0.0000141827
564.9	-0.000014411
569.91	-0.0000143297
574.7	-0.0000138202
580.15	-0.0000138206
585.15	-0.0000135263
590.04	-0.0000134381
594.86	-0.0000139913
599.58	-0.0000134071
604.3	-0.0000132947
609.33	-0.0000132639
614.1	-0.000013889
618.92	-0.0000138998
623.81	-0.0000139908
628.63	-0.0000139938
634.17	-0.0000143072
638.8	-0.0000144474
643.79	-0.0000140418
648.69	-0.0000133602
653.61	-0.0000134028
