Date/time start measurement:  11/15/2021 - 10:01 AM
Frequency(GHz):8.000000E+0
Power(dBm):1.800000E+1
Time between measurements:1.000000E+0
Samplename: 	

-1189.9	-0.00000675671
-1189.15	-0.00000694279
-1181.47	-0.00000683468
-1173.35	-0.00000680032
-1165.07	-0.00000676074
-1156.58	-0.00000662636
-1147.85	-0.00000661898
-1139.32	-0.00000660387
-1130.48	-0.00000661247
-1121.27	-0.00000663063
-1112.41	-0.00000660557
-1103.18	-0.00000665121
-1094.2	-0.00000667312
-1085.02	-0.00000670266
-1075.87	-0.00000669452
-1066.54	-0.00000673593
-1057.13	-0.00000674186
-1048.03	-0.0000067542
-1038.63	-0.00000676994
-1029.15	-0.0000068318
-1019.76	-0.0000068893
-1010.23	-0.00000690721
-1000.87	-0.00000688929
-991.35	-0.00000691424
-981.81	-0.00000692549
-972.27	-0.00000698143
-962.62	-0.00000697101
-953.19	-0.00000697404
-943.55	-0.00000700056
-933.82	-0.00000705407
-924.14	-0.00000701111
-914.46	-0.00000705602
-904.99	-0.00000714488
-895.16	-0.0000072019
-885.63	-0.00000724427
-875.77	-0.00000732938
-865.93	-0.00000735517
-856.06	-0.00000751993
-846.58	-0.00000760903
-836.74	-0.0000076847
-826.98	-0.00000790273
-817.36	-0.00000806108
-807.61	-0.00000820127
-797.75	-0.00000838577
-787.84	-0.00000858359
-777.99	-0.00000873371
-768.06	-0.00000896904
-758.19	-0.00000921225
-748.47	-0.00000941963
-738.67	-0.00000976187
-728.63	-0.00000992882
-718.76	-0.0000103178
-708.83	-0.0000106396
-699	-0.0000109656
-689	-0.000011203
-679.22	-0.0000114477
-669.17	-0.0000116651
-659.12	-0.0000118401
-649.38	-0.0000118308
-639.53	-0.000011721
-629.4	-0.0000114621
-619.38	-0.0000108009
-609.4	-0.0000101841
-599.55	-0.00000909541
-589.53	-0.00000821299
-579.51	-0.00000726023
-569.6	-0.0000058897
-559.6	-0.00000501345
-549.59	-0.00000397898
-539.7	-0.00000313118
-529.54	-0.00000236751
-519.51	-0.00000187564
-509.38	-0.00000139429
-499.5	-0.000000977235
-489.52	-0.000000753391
-479.32	-0.000000490807
-469.42	-0.000000302434
-459.21	-0.000000238271
-449.38	0.000000293317
-439.39	0.000000770427
-429.16	0.000000684835
-418.96	0.000000455905
-408.77	0.000000432661
-398.98	0.000000450336
-388.79	0.000000439319
-378.63	0.000000480843
-368.72	0.000000430239
-358.47	0.000000311475
-348.53	0.000000209298
-338.25	0.000000125523
-328.21	0.0000000537324
-318.11	0.0000000268565
-307.88	0.000000106395
-297.9	-0.0000000471129
-287.75	0.0000000655964
-277.61	-0.0000000437232
-267.36	-0.0000000712043
-257.28	-0.000000460783
-247.09	-0.000000586567
-237.07	-0.000000512113
-226.89	-0.000000548069
-216.68	-0.000000527004
-206.42	-0.000000343111
-195.827	-0.00000047858
-186.441	-0.000000405337
-176.143	-0.000000499644
-165.996	-0.000000415143
-155.788	-0.000000228101
-145.568	-0.000000280884
-135.502	-0.000000175318
-125.272	-0.000000049292
-115.141	-0.000000122535
-104.838	-0.0000000293167
-94.607	-0.0000000778628
-84.632	-0.00000000885707
-74.284	-0.000000070599
-64.03	-0.000000060914
-53.953	-0.0000000980803
-43.795	-0.0000000668461
-33.831	-0.000000297591
-23.336	-0.000000451824
-12.4185	-0.000000448677
-3.1196	-0.000000294201
7.2535	-0.000000421196
17.4995	-0.000000481001
27.7551	-0.000000379308
38.912	0.000000198282
48.5	0.0000010111
58.534	0.00000275041
68.739	0.00000257753
78.996	0.00000197585
89.364	0.00000167149
99.468	0.00000149511
109.679	0.00000145128
119.856	0.00000112647
130.079	0.00000105432
140.429	0.00000085989
150.664	0.000000674301
160.907	0.000000616917
171.051	0.000000426848
181.241	0.000000360506
191.591	0.000000244164
201.833	0.000000120317
212.119	0.000000109058
222.06	-0.000000053287
232.336	-0.000000059098
242.574	-0.000000137062
253.069	-0.000000247834
263.356	-0.000000234518
273.437	-0.000000330641
283.72	-0.000000223138
294.057	-0.000000278463
304.93	-0.000000387783
314.46	-0.000000446498
324.91	-0.000000607148
335.06	-0.000000700971
345.23	-0.00000072131
355.3	-0.000000831597
365.77	-0.000000741406
376.19	-0.000000849151
386.13	-0.000000856173
396.51	-0.000000868158
406.81	-0.000000882443
417.02	-0.000000842009
427.17	-0.000000824939
437.63	-0.000000842371
447.81	-0.000000898665
458.07	-0.000000831597
468.5	-0.000000433786
478.71	-0.000000282821
488.85	0.000000145982
499.06	0.000000674905
509.52	0.0000010502
519.84	0.00000199861
529.98	0.00000240271
540.08	0.00000358005
550.46	0.00000443996
560.55	0.00000546343
570.92	0.00000685747
581.28	0.00000795103
591.55	0.00000924165
601.75	0.00000998049
611.93	0.0000108201
622.39	0.0000111983
632.54	0.0000116338
642.7	0.0000121928
653.07	0.0000115354
663.23	0.0000111833
673.61	0.0000110765
683.92	0.0000107942
694.09	0.0000105185
704.26	0.0000103735
714.65	0.0000100162
724.93	0.00000976357
735.08	0.00000955341
745.27	0.00000929276
755.74	0.00000901674
765.93	0.00000877849
776.09	0.00000848275
786.36	0.00000837258
796.49	0.00000815987
806.75	0.00000801484
817.04	0.00000777332
827.35	0.00000757078
837.68	0.00000751134
847.71	0.00000732124
858.05	0.00000727887
868.33	0.00000713007
878.57	0.0000070475
888.81	0.00000694509
899.15	0.00000683213
909.28	0.00000683141
919.46	0.00000670053
929.73	0.00000663043
940.11	0.00000654281
950.29	0.00000651932
960.47	0.00000633192
970.71	0.00000629269
980.96	0.00000619475
991.19	0.00000616618
1001.44	0.00000608119
1011.54	0.00000597926
1021.74	0.0000059019
1031.96	0.0000058295
1042.26	0.0000058439
1052.52	0.00000581424
1062.66	0.00000572478
1072.86	0.00000570444
1083.07	0.00000567817
1093.26	0.00000559754
1103.56	0.00000547831
1113.54	0.00000545361
1123.87	0.0000052944
1134.02	0.00000521365
1144.37	0.00000509041
1154.65	0.00000499623
1164.46	0.0000048949
1174.83	0.00000477928
1185	0.00000471185
1195.26	0.0000046311
1205.35	0.00000450532
