Date/time start measurement:  3/14/2022 - 12:51 PM
Frequency(GHz):3.000000E+0
Power(dBm):1.800000E+1
Time between measurements:1.000000E+0
Samplename: 	

37.875	-0.00000606823
38.435	-0.0000050379
41.418	-0.00000399918
44.587	-0.00000349539
47.668	-0.00000155005
50.986	-0.00000120669
54.444	-0.00000275561
57.844	-0.00000150371
61.164	-0.00000118511
64.597	-0.000000563563
67.956	-0.00000242214
71.544	-0.000000691254
74.941	-0.00000260333
78.435	-0.00000270273
82.086	-0.00000146002
85.615	-0.00000511094
89.041	-0.00000266451
92.415	-0.00000399193
95.955	-0.00000155779
99.575	-0.00000068384
103.007	-0.00000229551
106.545	-0.00000104475
110.38	-0.000001745
114.071	-0.00000128911
118.042	0.000000373848
123.142	0.000000548421
126.689	-0.00000139317
130.239	-0.0000000108586
133.809	0.000000888537
137.697	-0.000000334006
141.349	-0.0000000505831
144.768	0.000000426485
148.491	0.00000219039
152.561	0.00000107977
155.626	0.00000254902
159.606	0.00000267359
163.242	0.00000327721
167	0.0000060636
170.99	0.0000121805
175.414	0.0000278523
179.707	0.0000383703
183.375	0.0000342598
187.064	0.0000177593
190.391	0.00000515367
194.254	-0.00000335574
197.97	-0.0000050542
201.573	-0.00000423985
205.235	-0.0000037531
209.107	-0.00000287189
212.988	-0.00000292957
216.93	-0.00000174032
220.785	-0.00000248851
224.463	-0.00000374255
227.921	-0.00000250486
231.775	-0.00000174046
235.647	-0.00000331313
239.555	-0.00000230046
243.246	-0.000000611902
246.967	-0.00000178635
250.602	-0.00000305584
254.691	-0.00000351636
258.328	-0.00000236326
262.215	-0.00000350168
266.073	-0.0000024474
269.903	-0.00000239628
273.876	-0.00000405158
277.666	-0.00000470564
281.361	-0.00000340615
285.43	-0.00000205265
289.164	-0.00000276627
292.893	-0.00000170384
296.398	-0.0000018069
304.07	-0.00000271187
307.44	-0.00000337634
310.75	-0.000000836312
314.07	-0.00000330078
