Date/time start measurement:  2/24/2022 - 9:35 AM
Frequency(GHz):3.000000E+0
Power(dBm):1.800000E+1
Time between measurements:1.000000E+0
Samplename: 	

27.004	0.0000163483
27.461	0.0000186343
30.367	0.000019984
33.612	0.0000206301
36.823	0.0000210593
40.08	0.0000216573
43.55	0.0000213488
46.964	0.0000213196
50.483	0.0000216926
53.779	0.0000218056
57.155	0.0000220156
60.754	0.0000223938
64.224	0.000022273
67.691	0.0000230173
71.429	0.0000232598
75.077	0.000022852
78.736	0.0000233643
82.197	0.0000230932
85.718	0.0000225093
89.374	0.0000226936
93.022	0.0000231995
96.614	0.0000233337
100.435	0.0000233874
104.095	0.0000223295
107.826	0.0000235108
111.357	0.0000236523
115.122	0.000023723
118.732	0.0000236564
122.393	0.0000238666
126.078	0.0000238706
129.932	0.0000234261
133.632	0.0000242277
137.478	0.0000242393
141.102	0.0000249658
144.852	0.0000250761
148.566	0.0000253718
152.299	0.0000262055
155.909	0.0000267997
159.708	0.0000282403
163.617	0.0000313116
167.489	0.0000365678
171.07	0.0000459521
174.852	0.0000610121
178.66	0.0000703951
182.456	0.0000494421
185.949	0.0000282576
189.755	0.000021885
193.682	0.0000197457
197.598	0.0000191245
201.191	0.0000190032
205.071	0.0000194701
208.929	0.0000192208
212.551	0.0000194223
216.323	0.0000194911
220.177	0.0000198432
224.118	0.0000201432
227.975	0.0000200028
231.826	0.0000200564
235.499	0.0000202569
239.318	0.0000204168
243.21	0.000020634
246.982	0.0000209228
250.627	0.0000203539
254.607	0.0000204234
258.479	0.00002039
262.333	0.0000205383
266.088	0.0000204944
269.862	0.0000205767
273.69	0.000020033
277.524	0.0000205179
281.343	0.0000209614
284.973	0.0000205624
289.044	0.0000204423
292.881	0.0000207996
296.772	0.000020364
303.39	0.0000203243
304.27	0.0000204175
308.22	0.0000205564
312.04	0.0000215343
315.87	0.0000208518
319.89	0.000020801
323.71	0.000020769
327.48	0.0000202788
331.22	0.0000210671
335.14	0.0000211083
339.1	0.0000208476
342.87	0.0000204773
346.66	0.0000204958
350.72	0.0000206771
354.62	0.0000204373
358.41	0.0000203263
362.12	0.0000211865
366.18	0.0000210891
370.02	0.0000207083
373.84	0.0000208676
377.73	0.0000206563
381.82	0.0000203404
385.54	0.0000205985
389.39	0.0000203237
393.16	0.0000211157
397.19	0.0000212327
