Date/time start measurement:  2/24/2022 - 9:39 AM
Frequency(GHz):5.000000E+0
Power(dBm):1.800000E+1
Time between measurements:1.000000E+0
Samplename: 	

262.3	-0.0000139918
262.93	-0.0000112813
267.11	-0.0000101313
271.57	-0.00000949909
275.82	-0.00000896824
280.27	-0.00000876234
284.76	-0.00000871031
289.11	-0.00000851265
293.6	-0.00000838268
298.12	-0.00000836304
302.77	-0.00000824714
307.38	-0.00000841797
312.07	-0.00000830451
316.61	-0.0000083661
321.13	-0.00000837537
325.83	-0.0000081827
330.54	-0.00000829609
335.11	-0.00000826522
339.71	-0.00000812672
344.48	-0.00000808212
349.1	-0.00000810138
353.61	-0.00000829413
358.39	-0.00000824372
363.2	-0.00000825832
367.83	-0.00000832234
372.5	-0.00000828753
377.24	-0.00000835507
382.04	-0.0000082986
386.43	-0.00000817935
391.16	-0.00000824675
395.99	-0.00000818489
400.74	-0.00000814235
405.58	-0.00000812535
410.29	-0.00000822776
415.2	-0.00000818568
420.07	-0.00000823245
424.84	-0.00000819224
429.71	-0.00000815135
434.56	-0.00000803726
439.54	-0.0000082096
444.41	-0.00000825275
449.22	-0.00000812876
454.06	-0.00000794869
458.97	-0.00000808249
463.83	-0.00000776642
468.74	-0.00000755018
473.65	-0.00000758357
478.63	-0.0000069676
483.41	-0.00000648915
488.12	-0.00000565962
492.98	-0.00000417059
497.84	-0.00000114743
502.82	0.00000380432
507.67	0.00000857422
512.75	0.00000498415
517.69	-0.00000194265
522.52	-0.00000576893
527.43	-0.00000754362
532.26	-0.00000858618
537.23	-0.00000887149
542.26	-0.00000913973
547.22	-0.00000934396
552.25	-0.00000958737
557.17	-0.00000962388
562.11	-0.00000974619
567.06	-0.00000989211
572.23	-0.00000980844
577.34	-0.00000973318
582.33	-0.00000982809
587.16	-0.00000977904
592.16	-0.0000100277
597.11	-0.00000988776
602.24	-0.0000099536
607.18	-0.00000998535
612.28	-0.000010117
617.28	-0.0000100448
622.3	-0.0000102146
627.21	-0.0000101916
632.21	-0.0000101334
637.22	-0.0000101813
642.33	-0.0000103388
