Date/time start measurement:  11/12/2021 - 11:29 AM
Frequency(GHz):9.000000E+0
Power(dBm):1.200000E+1
Time between measurements:1.000000E+0
Samplename: 	

-984.13	-0.00000766604
-983.52	-0.00000758675
-975.71	-0.00000745092
-967.4	-0.00000744317
-959.21	-0.0000074375
-950.66	-0.00000746075
-941.95	-0.00000745131
-933.36	-0.00000750821
-924.59	-0.00000750724
-915.34	-0.00000749974
-906.36	-0.00000748158
-897.23	-0.00000754599
-888.24	-0.00000754103
-878.96	-0.00000761063
-869.89	-0.00000757927
-860.53	-0.00000772163
-851.02	-0.00000788228
-841.65	-0.00000799124
-832.48	-0.00000812997
-823.04	-0.0000083359
-813.57	-0.00000849824
-804.06	-0.00000866676
-794.64	-0.0000088055
-785.21	-0.00000884618
-775.62	-0.00000894267
-765.97	-0.00000901495
-756.38	-0.0000090825
-746.75	-0.00000915902
-737.37	-0.0000092486
-727.63	-0.00000919522
-717.91	-0.00000918117
-708.2	-0.00000901979
-698.6	-0.0000088382
-688.98	-0.00000854438
-679.11	-0.00000827114
-669.53	-0.00000805311
-659.71	-0.00000770105
-649.86	-0.0000074145
-640.27	-0.00000699877
-630.57	-0.000006688
-620.65	-0.00000642166
-610.75	-0.00000613438
-600.98	-0.00000600763
-591.34	-0.00000584444
-581.34	-0.00000577628
-571.5	-0.00000566866
-561.84	-0.00000561321
-551.85	-0.0000055298
-542.1	-0.00000542024
-532.24	-0.00000535244
-522.35	-0.00000519264
-512.4	-0.00000512048
-502.45	-0.00000513743
-492.79	-0.00000512993
-482.83	-0.00000513077
-472.8	-0.00000524433
-462.92	-0.00000508864
-452.87	-0.00000482485
-443.03	-0.00000480923
-433.16	-0.00000473345
-423.16	-0.00000476383
-413.14	-0.00000469168
-402.96	-0.00000457631
-393.27	-0.00000462316
-383.28	-0.00000457825
-373.3	-0.00000445888
-363.31	-0.00000432389
-353.29	-0.00000445694
-343.35	-0.00000435222
-333.29	-0.0000043929
-323.32	-0.0000043722
-313.2	-0.0000042492
-303.19	-0.00000412353
-293.27	-0.00000419435
-283.28	-0.00000384993
-273.18	-0.00000413176
-263.05	-0.00000416554
-253.03	-0.00000412511
-242.92	-0.00000414532
-232.94	-0.00000406978
-222.93	-0.00000416941
-212.78	-0.00000429605
-202.57	-0.00000436965
-192.136	-0.00000439617
-182.795	-0.00000439496
-172.744	-0.00000441759
-162.448	-0.00000442704
-152.41	-0.0000043768
-142.362	-0.00000440416
-132.294	-0.00000443672
-122.154	-0.00000443164
-112.101	-0.00000448466
-101.877	-0.00000448987
-91.732	-0.00000458648
-81.845	-0.00000459023
-71.74	-0.000004624
-61.428	-0.00000460379
-51.455	-0.00000462219
-41.222	-0.00000473393
-31.138	-0.00000472666
-20.939	-0.00000471782
