Date/time start measurement:  3/14/2022 - 12:20 PM
Frequency(GHz):3.000000E+0
Power(dBm):1.800000E+1
Time between measurements:1.000000E+0
Samplename: 	

37.874	0.0000251812
38.391	0.0000252865
41.42	0.0000255787
44.49	0.0000256537
47.539	0.0000263446
50.89	0.0000261925
54.263	0.0000257831
57.651	0.000025661
60.927	0.0000261745
64.374	0.0000258423
67.721	0.0000261629
71.248	0.000025825
74.55	0.0000258035
78.039	0.0000256829
81.573	0.0000259033
84.968	0.0000260582
87.952	0.0000261391
91.96	0.0000260503
95.437	0.0000263813
98.973	0.0000260488
102.983	0.0000265169
106.324	0.0000269747
110.471	0.0000271342
114.887	0.0000272259
118.492	0.0000270242
122.086	0.0000270298
127.674	0.0000269489
131.215	0.0000272862
134.498	0.0000273667
137.942	0.0000274861
141.054	0.0000277787
144.71	0.0000282284
148.46	0.0000286028
151.977	0.0000292259
155.989	0.0000295385
159.831	0.0000301328
163.777	0.0000313411
168.532	0.0000337486
172.284	0.0000389479
176.103	0.000047422
179.663	0.0000596071
183.011	0.0000723572
186.794	0.0000673248
190.375	0.0000447482
193.938	0.0000326497
197.426	0.0000276153
201.106	0.0000256996
205.257	0.0000253825
209.023	0.0000254081
212.785	0.000025013
216.57	0.0000253949
220.315	0.0000253413
223.901	0.0000256252
227.638	0.0000254218
231.472	0.0000254171
235.652	0.0000254334
241.664	0.0000257317
244.123	0.000025897
247.83	0.000025552
252.58	0.0000249771
255.804	0.0000255962
259.687	0.0000256227
262.821	0.0000260282
267.369	0.0000256514
270.627	0.0000260125
274.418	0.0000258437
278.262	0.0000260104
281.738	0.0000258114
285.587	0.0000261412
289.372	0.0000260286
293.162	0.0000256546
296.95	0.000025862
300.034	0.000025605
304.29	0.0000258339
308.3	0.0000257676
312.05	0.0000260383
