Date/time start measurement:  3/14/2022 - 12:29 PM
Frequency(GHz):4.000000E+0
Power(dBm):1.800000E+1
Time between measurements:1.000000E+0
Samplename: 	

173.473	-0.00000223125
174.064	-0.000000427954
177.595	0.000000575157
181.174	0.00000106061
184.589	0.00000109332
188.473	0.00000130841
192.158	0.00000147478
195.714	0.00000183495
199.494	0.00000179953
203.124	0.00000196254
206.878	0.00000212958
210.727	0.00000227277
214.743	0.00000224857
218.477	0.00000236489
222.078	0.00000250543
225.921	0.0000024202
229.442	0.00000245077
233.028	0.00000246791
238.158	0.00000251884
243.812	0.00000276517
246.66	0.00000280317
250.238	0.00000275345
253.826	0.00000289953
257.445	0.00000278966
261.013	0.00000280859
264.589	0.00000310072
268.475	0.00000280073
272.071	0.00000300385
275.592	0.00000298974
279.617	0.00000312456
283.758	0.00000334721
287.351	0.00000326008
290.86	0.00000348174
294.655	0.00000370688
298.588	0.00000409872
302.49	0.00000426335
306.12	0.00000463733
309.96	0.00000548304
313.98	0.00000642474
317.86	0.00000806512
321.68	0.0000114178
325.55	0.0000170367
329.24	0.0000232911
333.11	0.0000251859
336.8	0.0000194404
340.7	0.0000109213
344.72	0.00000630001
348.76	0.00000423002
352.46	0.00000328413
357.24	0.00000291328
360.85	0.00000259163
364.43	0.00000271135
368.02	0.00000267734
371.8	0.00000231907
377.27	0.00000231495
381.04	0.00000248815
384.5	0.00000250124
388.27	0.00000243609
392.01	0.00000259987
395.63	0.00000259662
399.26	0.00000250895
403.03	0.00000267948
406.88	0.00000276142
410.82	0.00000269337
