Date/time start measurement:  2/24/2022 - 10:10 AM
Frequency(GHz):3.000000E+0
Power(dBm):1.800000E+1
Time between measurements:1.000000E+0
Samplename: 	

30.652	0.0000959757
31.107	0.0000978069
33.759	0.0000979664
34.411	0.0000979704
40.536	0.0000981065
43.942	0.0000980294
47.469	0.0000985002
50.894	0.0000979118
54.25	0.0000980175
57.769	0.0000980239
61.171	0.0000982211
64.656	0.0000979578
68.162	0.0000975048
71.843	0.0000977282
75.433	0.0000979417
79.008	0.0000981297
82.665	0.0000985388
86.233	0.0000982758
89.783	0.000098911
93.305	0.0000987641
96.944	0.000099153
100.614	0.0000996956
104.419	0.0000994881
108.04	0.0000995167
111.735	0.0000989155
115.408	0.0000992862
119.139	0.00009939
122.395	0.0000995004
126.248	0.0000995943
130.014	0.000100412
133.687	0.000100564
137.383	0.0000998084
141.212	0.0000997284
145.009	0.000100725
148.665	0.0000995887
152.405	0.000100449
155.868	0.00010035
159.58	0.00010172
163.343	0.000102015
167.256	0.000103679
171.033	0.000106431
174.654	0.000110695
178.406	0.000118179
182.091	0.000130968
185.779	0.000136506
189.24	0.000124457
192.634	0.000107453
196.554	0.000100049
199.908	0.0000970213
203.777	0.0000969505
207.613	0.0000966266
211.378	0.0000970395
215.439	0.0000964789
219.702	0.0000971514
223.282	0.0000969905
227.946	0.000096408
231.82	0.0000973983
235.383	0.0000976203
239.012	0.0000967595
242.694	0.0000969799
248.023	0.0000968814
251.924	0.0000972535
255.174	0.0000964291
259.102	0.0000972997
262.848	0.0000965724
266.374	0.0000966748
270.036	0.0000963949
273.489	0.0000966102
277.437	0.0000965792
281.284	0.0000975925
285.687	0.0000977999
288.691	0.0000972428
292.787	0.0000974335
296.373	0.0000981132
300.218	0.0000978319
304.03	0.0000972335
308.44	0.0000968603
312.25	0.0000965674
316.06	0.00009727
319.77	0.0000959254
323.59	0.0000966571
327.39	0.0000962793
331.36	0.0000965471
335.14	0.0000964551
339.16	0.0000967159
342.92	0.0000967142
346.61	0.0000968538
350.51	0.0000964871
354.91	0.0000967738
358.72	0.0000966014
362.3	0.0000961304
366.03	0.0000965927
369.84	0.0000959613
373.72	0.0000963398
377.73	0.0000967654
380.93	0.0000968101
384.99	0.0000966187
388.84	0.0000976496
392.64	0.0000968215
396.95	0.0000968973
401.05	0.0000969419
