Date/time start measurement:  2/24/2022 - 10:04 AM
Frequency(GHz):4.000000E+0
Power(dBm):1.800000E+1
Time between measurements:1.000000E+0
Samplename: 	

213.058	0.0000228191
213.205	0.0000251672
216.161	0.0000261303
219.646	0.0000265748
223.467	0.0000270281
227.574	0.0000272329
232.659	0.0000274154
236.137	0.0000275663
239.64	0.0000278837
243.042	0.0000281114
246.875	0.0000281985
250.939	0.0000280249
254.215	0.0000283305
258.615	0.0000280621
264.617	0.0000281694
268.069	0.000028175
271.595	0.0000286446
274.925	0.0000284938
278.491	0.0000285545
282.035	0.0000284159
285.671	0.0000285776
289.153	0.0000286877
292.945	0.000028701
296.609	0.0000288684
300.02	0.0000290216
303.99	0.0000291197
307.91	0.0000296554
312.57	0.0000301659
316.64	0.000030992
320.24	0.0000325367
323.96	0.0000348358
327.7	0.0000393713
331.67	0.0000444278
335.14	0.0000471626
338.93	0.0000424206
342.8	0.0000355559
346.64	0.0000314965
350.3	0.0000294525
354.14	0.0000283727
358.14	0.0000280335
362.08	0.0000277
365.62	0.0000275421
369.6	0.0000273119
373.47	0.0000270712
377.5	0.0000271094
381.2	0.0000271829
385.13	0.0000272085
389.15	0.0000271247
393.07	0.0000267281
396.99	0.0000264492
401.01	0.0000270798
405.07	0.0000271173
409.01	0.000027252
412.67	0.000027269
416.76	0.0000271882
420.61	0.0000271416
424.4	0.0000271324
428.37	0.0000268673
432.35	0.000027078
436.08	0.0000274031
440.14	0.0000274137
443.74	0.0000274244
447.71	0.0000275681
451.69	0.0000273033
455.46	0.0000270197
459.27	0.000027222
463.16	0.0000273775
467.2	0.0000275544
471.74	0.0000274268
475.46	0.0000273487
479.19	0.0000274874
483.13	0.0000277972
486.72	0.0000274081
490.36	0.0000275153
494.28	0.0000274871
498.19	0.0000272893
