Date/time start measurement:  2/24/2022 - 9:58 AM
Frequency(GHz):5.000000E+0
Power(dBm):1.800000E+1
Time between measurements:1.000000E+0
Samplename: 	

361.9	-0.00000084503
362.49	0.00000174977
366.64	0.00000276946
370.85	0.00000336246
375.45	0.00000366819
380.72	0.00000395087
385.44	0.00000420356
390.11	0.00000444726
394.31	0.00000463217
398.93	0.00000459597
403.67	0.00000466368
408.41	0.00000490937
413.27	0.0000048327
418	0.00000483969
423.21	0.00000471747
427.79	0.0000048933
432.36	0.00000487523
437.07	0.00000491817
442.09	0.00000501362
446.72	0.00000496629
451.25	0.00000503056
455.93	0.00000499574
460.76	0.0000049863
465.82	0.00000514801
470.54	0.00000521247
475.22	0.00000530575
480.43	0.00000548543
485.22	0.00000541477
490.2	0.00000548397
494.73	0.00000583268
499.56	0.00000645017
504.32	0.00000730502
509.07	0.00000905821
513.74	0.0000121068
518.5	0.0000166852
523.55	0.0000176356
528.19	0.0000135438
533.1	0.00000940427
537.65	0.00000668944
542.66	0.0000055354
547.27	0.00000486706
552.31	0.00000456119
557.02	0.00000433626
561.74	0.00000426731
566.92	0.00000433054
571.62	0.0000041754
576.82	0.00000414075
581.6	0.00000409378
586.26	0.00000402867
590.86	0.00000410453
595.55	0.00000422503
600.39	0.00000400442
605.23	0.00000410511
609.93	0.00000396166
614.81	0.00000388775
619.64	0.00000398469
624.51	0.00000395599
629.31	0.0000041836
634.37	0.00000431012
639.1	0.00000428921
643.78	0.00000435138
648.79	0.00000441876
653.83	0.00000434583
658.5	0.00000419832
663.49	0.00000428226
668.11	0.00000422152
672.9	0.00000429399
678.1	0.00000409634
682.95	0.0000039993
687.64	0.00000389837
692.46	0.00000389532
