Date/time start measurement:  11/12/2021 - 12:22 PM
Frequency(GHz):8.000000E+0
Power(dBm):3.000000E+0
Time between measurements:1.000000E+0
Samplename: 	

-1189.84	-0.00000410004
-1189.2	-0.0000038136
-1182.82	-0.00000372148
-1176.43	-0.00000371555
-1169.86	-0.00000355672
-1162.97	-0.0000034928
-1156.17	-0.00000344607
-1149.39	-0.00000341992
-1142.46	-0.00000347391
-1135.18	-0.00000343614
-1128.18	-0.00000341557
-1120.77	-0.00000341726
-1113.62	-0.00000342561
-1106.52	-0.00000342876
-1098.99	-0.00000342476
-1091.72	-0.00000339123
-1084.34	-0.00000342295
-1077.12	-0.00000333917
-1069.47	-0.00000329934
-1062.05	-0.00000330757
-1054.59	-0.00000333384
-1047.2	-0.00000335382
-1039.61	-0.00000331883
-1032.05	-0.00000337149
-1024.5	-0.00000340127
-1017.05	-0.00000339231
-1009.36	-0.0000033635
-1001.84	-0.00000335878
-994.19	-0.00000331084
-986.59	-0.00000326314
-978.83	-0.00000325515
-971.23	-0.00000326048
-963.55	-0.00000329523
-955.94	-0.00000331775
-948.17	-0.00000330721
-940.51	-0.00000337646
-932.82	-0.0000033284
-925.13	-0.00000334002
-917.39	-0.00000324583
-909.69	-0.00000320636
-901.86	-0.00000313506
-894.1	-0.00000311992
-886.26	-0.00000308336
-878.62	-0.00000302562
-870.82	-0.00000298336
-863	-0.00000294947
-855.08	-0.0000029054
-847.4	-0.0000029347
-839.54	-0.00000289426
-831.88	-0.0000029347
-823.94	-0.00000292659
-816.17	-0.00000292768
-808.29	-0.00000293663
-800.58	-0.00000291242
-792.78	-0.00000299607
-784.68	-0.0000030192
-776.93	-0.00000303857
-769.04	-0.0000030801
-761.17	-0.00000307864
-753.14	-0.00000306109
-745.38	-0.00000306787
-737.49	-0.00000311896
-729.68	-0.0000032278
-721.62	-0.00000326968
-713.8	-0.0000033474
-705.85	-0.00000335914
-697.97	-0.00000335672
-689.85	-0.00000333893
-682.01	-0.00000337537
-674.11	-0.00000341713
-666.14	-0.00000342948
-658.07	-0.00000340636
-650.16	-0.00000342815
-642.28	-0.00000347863
-634.34	-0.00000354074
-626.14	-0.00000358844
-618.22	-0.00000359546
-610.48	-0.00000366943
-602.5	-0.00000372487
-594.38	-0.00000373613
-586.35	-0.00000374376
-578.34	-0.0000037216
-570.49	-0.00000371567
-562.59	-0.00000368892
-554.46	-0.00000367306
-546.46	-0.0000036417
-538.55	-0.000003575
-530.59	-0.00000355623
-522.46	-0.00000355938
-514.4	-0.00000353674
-506.39	-0.00000349013
-498.42	-0.00000346592
-490.25	-0.00000341592
-482.26	-0.00000338492
-474.2	-0.00000332464
-466.37	-0.00000327742
-458.1	-0.00000321774
-450.08	-0.00000309341
-441.94	-0.00000304825
-434.15	-0.00000303869
-425.94	-0.0000029692
-417.85	-0.00000290286
-409.81	-0.00000282647
-401.89	-0.00000279245
-393.65	-0.00000274753
-385.53	-0.00000273349
-377.56	-0.00000277392
-369.47	-0.00000281884
-361.35	-0.00000285492
-353.33	-0.00000282961
-345.29	-0.00000288021
-337.22	-0.00000290237
-329.01	-0.0000029204
-320.98	-0.0000028687
-312.88	-0.00000287463
-304.78	-0.00000293287
-296.75	-0.00000295199
-288.58	-0.00000292403
-280.51	-0.00000299933
-272.42	-0.0000029882
-264.29	-0.00000298433
-256.18	-0.00000299269
-248.11	-0.00000299645
-239.97	-0.00000301037
-231.77	-0.00000304718
-223.66	-0.00000307938
-215.53	-0.00000299924
-207.65	-0.00000300239
-199.96	-0.00000303712
-191.403	-0.00000304536
-183.109	-0.00000306593
-175.175	-0.00000309922
-166.985	-0.00000309789
-158.847	-0.00000310407
-150.57	-0.00000306848
-142.492	-0.00000307077
-134.321	-0.00000305963
-126.064	-0.00000305551
-118.069	-0.00000301036
-109.846	-0.00000300745
-101.771	-0.00000300963
-93.527	-0.00000304341
-85.47	-0.00000311108
-77.488	-0.00000307646
-69.373	-0.00000309329
-60.811	-0.0000031359
-52.832	-0.00000313797
-44.588	-0.00000310383
-36.414	-0.00000309765
-28.16	-0.0000030715
-20.073	-0.00000310479
-11.4254	-0.00000308107
-3.8991	-0.00000299717
4.354	-0.0000028456
12.6091	-0.00000216486
20.8316	-0.00000217612
28.9763	-0.00000217842
37.719	-0.00000225627
45.367	-0.00000226559
53.563	-0.00000222358
61.547	-0.00000216293
69.78	-0.00000214768
78.062	-0.00000210627
86.215	-0.00000206366
94.3	-0.0000020455
102.395	-0.00000208037
110.755	-0.00000208048
119.01	-0.0000021369
127.126	-0.00000215288
135.131	-0.00000221026
143.484	-0.00000220335
151.61	-0.00000221509
159.908	-0.00000229148
167.845	-0.00000228797
176.241	-0.00000229269
184.25	-0.00000226812
192.317	-0.00000224222
200.6	-0.00000231667
209.078	-0.00000231364
217.271	-0.00000233156
225.362	-0.0000023702
233.523	-0.00000235894
241.879	-0.00000236789
250.044	-0.00000238242
258.128	-0.00000237793
266.372	-0.00000239585
274.451	-0.0000023766
282.799	-0.00000238932
290.904	-0.00000236922
299.162	-0.00000239283
307.88	-0.00000236111
315.56	-0.00000236607
323.68	-0.00000237285
331.83	-0.00000236704
340.05	-0.00000238846
348.28	-0.00000240227
356.46	-0.0000024186
364.64	-0.00000239511
372.79	-0.00000235116
381.16	-0.00000238021
389.24	-0.00000236872
397.48	-0.00000234196
405.66	-0.00000230298
414.07	-0.00000227999
422.17	-0.00000231752
430.33	-0.00000229417
438.5	-0.00000228315
446.84	-0.0000022041
454.98	-0.0000021535
463.13	-0.00000212578
471.38	-0.00000206936
479.66	-0.00000208244
487.8	-0.0000020006
496.02	-0.00000196282
504.16	-0.00000193787
512.58	-0.00000189792
520.75	-0.00000186693
528.83	-0.00000182576
537.05	-0.0000017162
545.4	-0.00000162395
553.54	-0.00000151705
561.63	-0.00000139042
569.79	-0.00000137129
578.03	-0.00000135205
586.39	-0.00000130895
594.38	-0.0000013087
602.63	-0.00000137807
610.9	-0.00000143606
619.2	-0.0000015501
627.45	-0.00000157928
635.49	-0.00000163412
643.69	-0.00000171596
651.97	-0.00000171584
660.23	-0.00000173872
668.32	-0.0000017478
676.52	-0.00000180301
684.8	-0.00000186197
693.08	-0.0000018754
701.15	-0.00000193775
709.3	-0.00000191245
717.74	-0.00000190434
725.82	-0.00000196728
734.17	-0.00000200796
742.19	-0.00000204101
750.49	-0.00000203508
758.84	-0.00000203532
766.95	-0.00000204658
774.95	-0.00000204246
783.32	-0.00000197588
791.51	-0.00000196268
799.68	-0.00000193655
807.72	-0.00000193812
816.11	-0.0000019771
824.32	-0.00000200349
832.54	-0.00000203461
840.62	-0.00000207431
848.73	-0.00000206063
857	-0.0000020501
865.26	-0.00000201075
873.45	-0.00000197733
881.54	-0.00000195578
889.93	-0.00000199428
897.99	-0.00000206728
906.31	-0.00000208363
914.22	-0.00000203641
922.6	-0.00000206414
930.8	-0.00000202322
939.03	-0.00000203218
947.21	-0.00000203908
955.42	-0.00000203182
963.64	-0.00000206463
971.74	-0.00000209417
979.9	-0.00000211596
988.13	-0.00000209914
996.37	-0.00000204744
1004.52	-0.0000019886
1012.67	-0.00000197528
1020.92	-0.00000194017
1028.94	-0.00000197976
1037.13	-0.00000203944
1045.35	-0.00000204538
1053.7	-0.00000200567
1061.83	-0.00000200252
1069.95	-0.00000203024
1078.09	-0.00000203932
1086.36	-0.00000204828
1094.4	-0.00000207601
1102.67	-0.0000020662
1110.78	-0.00000205034
1119.04	-0.00000211813
1127.22	-0.00000210736
1135.33	-0.00000216365
1143.42	-0.00000218799
1151.64	-0.00000218798
1159.79	-0.00000218181
1167.99	-0.0000021622
1175.98	-0.00000218435
1184.27	-0.00000222757
1192.38	-0.00000224609
1200.51	-0.00000225553
1208.64	-0.00000224997
