Date/time start measurement:  3/14/2022 - 12:44 PM
Frequency(GHz):4.000000E+0
Power(dBm):1.800000E+1
Time between measurements:1.000000E+0
Samplename: 	

173.596	-0.0000151867
174.383	-0.000012691
177.734	-0.0000119215
181.387	-0.00000993028
185.018	-0.0000103615
188.516	-0.0000100228
192.636	-0.0000096534
196.247	-0.00000902129
200.253	-0.0000099475
204.339	-0.00000888155
208.529	-0.00000926494
212.982	-0.00000894309
216.468	-0.00000918104
219.95	-0.00000944261
223.496	-0.00000850108
227.175	-0.00000813285
230.817	-0.00000819216
234.24	-0.00000833597
238.084	-0.00000755285
241.737	-0.00000742529
245.47	-0.00000802161
249.593	-0.00000788632
253.477	-0.00000780395
257.215	-0.00000786656
260.834	-0.00000790276
264.437	-0.00000804393
268.194	-0.00000866853
272.072	-0.00000837558
275.81	-0.00000738314
279.646	-0.00000774418
283.678	-0.00000787677
287.386	-0.00000805234
291.111	-0.00000806505
295.103	-0.00000785019
298.856	-0.00000699007
302.4	-0.00000620229
306.05	-0.00000583526
310.17	-0.00000385825
316.31	-0.00000255778
319.68	0.000000703525
323.03	0.00000671191
326.57	0.0000113171
330.07	0.0000114248
333.84	0.00000372648
337.91	-0.00000219106
341.28	-0.00000603712
345.32	-0.00000741364
349.17	-0.00000839528
353	-0.00000955321
357.14	-0.00000995948
361.04	-0.00000940478
365.01	-0.0000100797
368.8	-0.0000100909
372.84	-0.00000974355
377.73	-0.0000100617
381.21	-0.0000104872
384.98	-0.0000102306
388.68	-0.0000101062
392.41	-0.00000996509
396.21	-0.0000100821
400.03	-0.00000919519
403.63	-0.0000094966
408.21	-0.00000992379
412.38	-0.0000106271
