Date/time start measurement:  11/15/2021 - 10:29 AM
Frequency(GHz):8.000000E+0
Power(dBm):1.200000E+1
Time between measurements:1.000000E+0
Samplename: 	

-1189.69	-0.00000167746
-1188.98	-0.00000164489
-1181.3	-0.00000149102
-1173.24	-0.00000144599
-1164.86	-0.00000142419
-1156.43	-0.00000139248
-1147.7	-0.00000137722
-1139.11	-0.00000132819
-1130.17	-0.00000133739
-1121.26	-0.00000128655
-1112.23	-0.00000129151
-1103.14	-0.00000127892
-1094.16	-0.00000124454
-1084.96	-0.00000125156
-1075.78	-0.00000119394
-1066.54	-0.00000120822
-1057.24	-0.0000012213
-1048	-0.00000125035
-1038.6	-0.00000128425
-1029.09	-0.00000123849
-1019.8	-0.00000129333
-1010.17	-0.000001319
-1000.81	-0.00000129926
-991.33	-0.00000137505
-981.84	-0.00000139308
-972.16	-0.0000014334
-962.62	-0.00000147807
-953.14	-0.00000145725
-943.51	-0.00000149756
-933.86	-0.00000149708
-924.12	-0.00000153231
-914.46	-0.00000153001
-904.9	-0.00000153982
-895.21	-0.00000159199
-885.52	-0.00000159284
-875.79	-0.00000161052
-865.91	-0.00000161633
-856.09	-0.00000162517
-846.54	-0.00000167758
-836.77	-0.00000172504
-826.96	-0.00000179235
-817.42	-0.00000178375
-807.49	-0.00000182951
-797.72	-0.00000184392
-787.88	-0.00000190276
-778.11	-0.00000199743
-768.09	-0.00000204319
-758.18	-0.00000217817
-748.59	-0.00000218181
-738.68	-0.00000224161
-728.68	-0.00000231074
-718.72	-0.00000236957
-708.82	-0.0000024611
-699.04	-0.00000257344
-689	-0.00000272308
-679.17	-0.000002806
-669.15	-0.0000028416
-659.26	-0.00000292452
-649.25	-0.00000294159
-639.42	-0.00000294318
-629.46	-0.00000290092
-619.38	-0.00000273894
-609.54	-0.00000258507
-599.61	-0.00000228338
-589.49	-0.00000205784
-579.47	-0.00000170724
-569.49	-0.00000139175
-559.5	-0.00000109818
-549.6	-0.000000756901
-539.71	-0.000000572402
-529.6	-0.000000263451
-519.52	-0.000000124956
-509.4	-0.0000000335539
-499.54	0.000000123343
-489.48	0.000000175885
-479.36	0.000000333751
-469.35	0.000000365348
-459.25	0.000000437138
-449.41	0.000000462077
-439.23	0.00000046922
-429.03	0.000000493917
-418.92	0.000000469705
-408.85	0.000000468978
-398.97	0.000000445613
-388.79	0.000000471761
-378.69	0.000000433748
-368.74	0.000000429269
-358.53	0.000000456992
-348.52	0.000000446823
-338.27	0.000000462198
-328.3	0.000000496701
-318.04	0.000000434475
-307.82	0.000000440891
-297.8	0.000000390772
-287.91	0.000000388472
-277.57	0.000000350458
-267.4	0.000000316318
-257.38	0.000000327214
-247.06	0.000000355058
-236.98	0.000000397672
-226.96	0.000000379754
-216.7	0.000000380965
-206.38	0.000000420311
-196.168	0.000000381086
-186.406	0.000000432175
-176.211	0.000000438954
-165.957	0.000000458082
-155.834	0.000000428059
-145.508	0.000000403241
-135.172	0.000000484474
-125.174	0.000000504207
-115.179	0.000000508445
-104.914	0.000000506386
-94.644	0.000000522006
-84.665	0.000000505542
-74.475	0.00000053496
-64.206	0.000000482782
-54.02	0.000000433267
-43.718	0.000000415471
-33.443	0.000000354576
-23.11	0.000000309419
-12.6068	0.000000285933
-2.878	0.000000230242
7.4265	0.000000224794
17.6481	0.000000193076
27.8504	0.000000203729
38.91	0.000000320071
48.466	0.000000535562
58.612	0.000000963035
68.724	0.000000831682
79.048	0.000000700934
89.343	0.0000006697
99.556	0.000000648877
109.69	0.00000062842
119.877	0.000000605539
129.877	0.000000547065
140.136	0.000000495248
150.635	0.000000452755
160.967	0.000000497669
170.951	0.000000490042
181.215	0.000000451786
191.323	0.000000442101
201.705	0.000000454448
212.279	0.000000442221
222.345	0.000000396943
232.552	0.000000404209
242.828	0.000000388471
253.149	0.000000388471
263.442	0.000000344767
273.419	0.000000299732
283.698	0.000000333024
294.085	0.000000347551
305.04	0.000000346583
314.51	0.00000034283
324.79	0.000000360263
335	0.000000309659
345.25	0.000000305664
355.34	0.000000311959
365.72	0.000000280725
376.17	0.000000297432
386.08	0.000000263777
396.53	0.000000635318
406.73	0.000000702508
416.93	0.000000749359
427.36	0.000000509534
437.45	0.000000436049
447.77	0.000000462561
457.97	0.00000044307
468.33	0.000000440407
478.69	0.000000518977
488.82	0.000000586046
499.11	0.000000759286
509.53	0.000000885797
519.73	0.00000102938
529.93	0.00000120395
540.22	0.00000140818
550.49	0.00000181144
560.64	0.0000020279
570.93	0.00000244836
581.34	0.00000274569
591.49	0.00000297631
601.64	0.00000329544
611.93	0.00000346698
622.28	0.00000358514
632.48	0.00000356226
642.71	0.00000359761
653	0.00000352667
663.2	0.00000327025
673.63	0.00000319362
683.88	0.00000308648
694.15	0.00000300088
704.29	0.00000290912
714.54	0.00000281796
724.84	0.0000027429
735.16	0.00000265888
745.31	0.00000259254
755.65	0.00000253975
765.95	0.00000246748
776.07	0.00000241143
786.4	0.00000236652
796.57	0.00000234993
806.65	0.00000229752
816.97	0.00000225926
827.41	0.00000220769
837.53	0.00000218311
847.7	0.00000218251
857.98	0.00000210079
868.33	0.00000209425
878.48	0.00000203335
888.74	0.00000202754
899.13	0.00000205611
909.33	0.0000020181
919.44	0.00000203371
929.7	0.00000198468
940.06	0.00000197488
950.23	0.0000019865
960.42	0.00000194739
970.66	0.00000193445
980.87	0.00000191157
991.16	0.0000019382
1001.45	0.00000188335
1011.63	0.00000187512
1021.7	0.00000185612
1032	0.00000185079
1042.27	0.00000184304
1052.64	0.0000018089
1062.61	0.00000178711
1072.81	0.00000177367
1083.02	0.00000175393
1093.32	0.00000175091
1103.44	0.00000173711
1113.5	0.00000172004
1123.96	0.00000170418
1134.05	0.00000169377
1144.33	0.00000170866
1154.6	0.00000167379
1164.46	0.00000165539
1174.81	0.00000162694
1185	0.00000158639
1195.23	0.00000156291
1205.32	0.0000015261
