Date/time start measurement:  7/30/2021 - 10:31 AM
Frequency(GHz):2.500000E+0
Power(dBm):1.100000E+1
Time between measurements:2.000000E+0
Samplename: 	

-257.013	-0.0000000100676
-255.671	-0.0000000482024
-253.347	-0.000000492985
-250.995	-0.0000000109153
-248.577	0.0000000618433
-246.011	0.0000000608748
-243.701	-0.000000149532
-241.233	-0.000000274589
-238.723	0.0000000325463
-236.277	0.000000189686
-233.602	0.000000153488
-231.025	0.000000457596
-228.537	0.000000457838
-225.922	0.0000000700755
-223.353	0.000000442344
-220.697	0.00000038036
-218.167	0.00000017758
-215.416	-0.000000207521
-212.697	0.000000284842
-210.324	-0.000000114545
-207.56	0.000000085451
-204.78	0.000000156878
-202.086	0.0000000969519
-199.554	0.000000334356
-196.804	0.0000000969517
-194.164	0.000000413409
-191.383	0.000000323218
-188.605	-0.000000249287
-186.094	-0.000000089727
-183.244	-0.000000095538
-180.55	0.0000000313358
-177.869	-0.000000120719
-175.269	-0.000000102075
-172.426	-0.000000076289
-169.752	-0.000000157401
-166.958	-0.000000103286
-164.384	-0.00000028379
-161.401	0.000000114021
-158.698	-0.000000216358
-156.141	0.0000000214087
-153.174	-0.000000286695
-150.567	0.00000000264396
-147.803	0.0000000153556
-145.079	0.000000422005
-142.259	0.000000275519
-139.636	0.0000000675335
-136.788	0.000000121769
-134.037	0.000000139566
-131.372	0.000000320554
-128.534	0.00000029949
-125.661	0.000000396824
-123.072	0.000000535441
-120.176	0.000000806017
-117.536	0.000000782893
-114.851	0.000000629991
-111.771	0.000000370553
-109.079	0.000000218135
-106.408	0.000000492221
-103.485	0.000000267408
-100.83	0.000000459413
-98.054	0.000000787009
-95.01	0.000000925625
-92.284	0.000000703839
-89.459	0.00000115988
-86.831	0.00000102998
-84.097	0.00000140128
-81.332	0.00000120032
-78.351	0.00000118264
-75.502	0.00000140685
-72.742	0.00000135819
-69.958	0.00000124572
-67.095	0.00000135952
-64.487	0.00000155443
-61.487	0.00000138821
-58.611	0.00000112223
-56.023	0.000000391256
-53.21	-0.00000000788848
-50.35	-0.000000597826
-47.61	-0.000000982562
-44.59	-0.00000149914
-41.83	-0.00000177613
-39.019	-0.0000016633
-36.15	-0.00000187721
-33.393	-0.00000136464
-30.371	-0.00000111125
-27.552	-0.000000957381
-24.848	-0.000000900481
-21.982	-0.000000621917
-18.2183	-0.000000756659
-16.3449	-0.000000468168
-13.5593	-0.000000621796
-10.6125	-0.000000740074
-7.7593	-0.000000254009
-5.1122	-0.000000310908
-2.1976	-0.000000624097
-0.1051	-0.000000396499
2.49231	-0.000000605816
6.5842	-0.000000619859
9.1775	-0.000000461268
12.0461	-0.000000567439
14.8976	-0.000000371439
17.5746	-0.000000179434
20.4708	0.0000000440475
23.3631	0.000000158694
26.3419	0.000000121649
29.2192	-0.00000030437
32.113	-0.000000286938
34.797	-0.000000261999
37.72	-0.000000177981
40.638	-0.000000199894
43.531	-0.000000107039
46.368	-0.0000000673303
49.013	0.0000000333939
51.885	-0.00000024965
54.987	-0.0000000206001
57.696	0.00000011729
60.561	0.000000223947
63.448	0.000000356753
66.289	0.00000025276
69.212	0.000000124796
72.057	-0.000000125804
75.087	0.000000156152
77.916	0.000000154941
80.638	0.0000000786714
83.408	0.000000285205
86.338	-0.0000000364593
89.26	0.000000145377
92.125	0.000000100947
94.916	-0.000000232096
97.929	-0.00000134515
100.657	-0.00000254391
103.797	-0.00000421832
106.436	-0.00000485741
109.364	-0.00000487981
112.354	-0.00000461153
115.12	-0.00000498053
117.837	-0.0000042728
120.735	-0.0000025169
123.705	-0.00000194367
126.582	-0.00000148727
129.37	-0.00000103849
132.401	-0.000000800968
135.129	-0.000000582572
138.101	-0.000000450251
141.135	-0.00000055727
143.983	-0.000000356185
146.742	-0.000000561144
149.742	-0.000000103165
152.517	-0.000000346742
155.523	-0.000000376281
158.399	-0.000000599762
161.26	-0.000000281611
164.233	-0.000000500371
167.145	-0.000000798669
169.864	-0.00000069855
172.789	-0.000000730752
175.84	-0.000000779415
178.683	-0.000000949385
181.358	-0.000000893697
184.318	-0.00000085968
187.267	-0.000000770457
189.96	-0.000000471435
193.088	-0.00000050267
195.756	-0.000000632812
198.74	-0.000000830144
201.716	-0.000000592014
204.817	-0.000000712835
207.661	-0.000000659565
210.629	-0.000000876991
213.544	-0.000000871302
216.385	-0.000000864887
219.154	-0.00000113098
221.982	-0.000000397345
224.985	-0.000000668648
227.743	-0.000000741285
230.794	-0.000000944791
233.899	-0.000000601095
236.555	-0.000000745764
239.491	-0.000000508119
242.522	-0.000000372408
245.311	-0.0000002781
248.168	-0.000000328219
251.116	-0.000000476278
254.013	-0.000000653513
256.851	-0.00000065085
259.801	-0.000000472041
262.605	-0.00000081271
265.649	-0.000000638987
268.612	-0.000000682448
271.57	-0.000000532331
274.519	-0.000000367202
277.204	-0.00000059371
280.121	-0.000000692738
283.033	-0.000000354369
286.045	-0.000000373013
288.88	-0.000000500491
291.724	-0.000000271926
294.721	-0.000000031859
297.662	-0.000000440324
300.011	-0.00000036248
303.43	-0.000000294322
