Date/time start measurement:  7/30/2021 - 11:05 AM
Frequency(GHz):2.500000E+0
Power(dBm):1.200000E+1
Time between measurements:2.000000E+0
Samplename: 	

310.8	-0.000000143115
309.27	-0.00000058826
306.87	-0.000000394319
304.42	-0.000000420591
302	-0.000000581725
299.34	-0.000000566471
296.91	-0.000000455941
294.24	-0.000000650851
291.75	-0.000000878207
289.24	-0.000000685475
286.65	-0.000000551217
283.97	-0.00000107808
281.29	-0.00000107614
278.53	-0.0000015547
275.96	-0.00000148933
273.07	-0.00000160083
270.62	-0.00000150906
267.62	-0.0000016185
265.03	-0.00000182649
262.4	-0.00000134756
259.63	-0.00000119599
256.86	-0.00000129975
254.09	-0.00000120883
251.26	-0.00000130543
248.52	-0.000000755085
245.87	-0.00000106258
242.97	-0.000000491049
240.22	-0.000000444197
237.41	-0.00000103643
234.67	-0.00000101186
231.78	-0.000000719372
229.05	-0.000000622159
226.42	-0.00000085133
223.46	-0.000000518893
220.74	-0.000000505455
218	-0.000000530636
215.13	-0.000000432212
212.24	-0.000000361028
209.39	-0.000000573129
206.65	-0.000000419501
203.65	-0.000000437055
200.98	-0.000000568649
198.055	-0.000000302554
195.478	-0.000000413326
192.642	-0.000000673005
189.938	-0.000000597705
187.021	-0.00000102034
184.139	-0.000000604365
181.241	-0.0000000984435
178.401	-0.0000000462655
175.465	-0.000000128225
172.815	-0.000000477973
169.873	-0.000000269262
166.994	-0.000000473253
164.207	-0.000000585236
161.221	-0.000000539232
158.572	-0.000000136094
155.739	-0.000000313208
152.59	-0.000000192509
149.804	0.000000280604
147.033	0.000000041505
144.09	-0.0000000123679
141.135	0.000000284842
138.436	0.0000000370259
135.468	0.0000000266144
132.576	0.000000127097
129.848	0.0000000910198
126.878	-0.0000000950537
123.969	0.0000000350888
121.359	0.000000224673
118.463	0.000000181212
115.399	0.000000285568
112.412	-0.000000110065
109.714	-0.000000616228
106.773	-0.000000852905
103.957	-0.000000768524
100.965	-0.0000011512
98.038	-0.000000969851
95.28	-0.000000608601
92.419	-0.000000845278
89.547	-0.000000588626
86.429	-0.000000908594
83.643	-0.00000100484
80.754	-0.000000974936
77.813	-0.00000148122
74.785	-0.0000021628
72.126	-0.00000224452
68.987	-0.0000027301
66.186	-0.00000326931
63.258	-0.00000345877
60.342	-0.00000348928
57.535	-0.00000368395
54.635	-0.00000380526
51.672	-0.00000420234
48.575	-0.00000453974
45.852	-0.00000427813
42.699	-0.00000419677
39.891	-0.0000037337
36.895	-0.00000289813
34.008	-0.00000258882
31.142	-0.00000201329
28.368	-0.00000134309
25.4	-0.000000675427
22.546	-0.0000000676935
19.583	-0.0000000247162
16.5984	-0.0000000921482
13.88	-0.0000000858529
10.7512	0.000000220436
7.9076	0.000000291137
5.0109	-0.0000000231424
2.0948	-0.0000000662407
-0.34355	0.000000171648
-2.97499	0.000000058696
-6.9144	0.000000127581
-9.6126	-0.000000158854
-12.5585	-0.0000000929956
-15.5484	-0.00000040461
-18.277	-0.000000324709
-21.4984	-0.000000418048
-24.4028	-0.000000650246
-27.242	-0.000000755449
-30.2724	-0.000000338026
-33.298	-0.000000565987
-36.252	-0.000000752061
-39.03	-0.000000498556
-42.129	-0.000000593227
-44.943	-0.000000372408
-47.731	-0.000000669253
-50.798	-0.000000844914
-53.708	-0.00000116621
-56.638	-0.00000134757
-59.607	-0.00000129829
-62.454	-0.00000118813
-65.583	-0.00000118292
-68.54	-0.00000109104
-71.415	-0.00000114745
-74.357	-0.00000116222
-77.306	-0.00000118583
-80.243	-0.00000116948
-82.974	-0.00000136802
-86.06	-0.00000108667
-89	-0.00000148375
-91.992	-0.00000137116
-94.985	-0.00000160215
-97.837	-0.0000020335
-100.737	-0.0000020352
-103.724	-0.0000025019
-106.746	-0.00000279753
-109.774	-0.00000270371
-112.628	-0.00000158206
-115.64	-0.0000000322221
-118.391	0.00000178311
-121.599	0.00000230393
-124.577	0.0000025038
-127.172	0.00000200127
-130.279	0.00000130479
-133.36	0.00000132489
-136.158	0.000000860856
-139.124	0.000000716428
-142.12	0.000000191017
-144.939	0.000000113295
-147.888	-0.000000295775
-150.881	-0.0000000101888
-153.863	-0.000000183913
-156.776	-0.0000000980803
-159.886	-0.000000025806
-162.842	-0.000000287301
-165.745	-0.000000470347
-168.694	-0.000000183793
-171.622	-0.00000026442
-174.643	-0.000000670101
-177.682	-0.000000351706
-180.539	-0.000000231612
-183.545	-0.000000066241
-186.257	-0.000000527849
-189.29	0.0000000792761
-192.353	-0.000000169507
-195.297	-0.000000708597
-198.182	-0.000000343837
-201.266	-0.000000053166
-204.293	-0.000000304007
-207.114	0.0000000352099
-210.164	-0.000000162848
-212.947	-0.0000000863372
-216.032	-0.0000000915429
-218.855	-0.0000000885163
-221.789	-0.000000125683
-224.809	0.000000122739
-227.783	-0.000000018784
-230.799	0.0000000148715
-233.776	-0.00000000219845
-236.579	0.000000143924
-239.661	-0.000000234033
-242.694	0.00000000579164
-245.533	-0.000000308124
-248.344	-0.0000000623667
-251.39	-0.0000000449337
-254.316	-0.000000066604
-257.134	-0.000000209337
-260.368	-0.00000037955
-263.365	-0.00000049456
