Date/time start measurement:  7/30/2021 - 10:41 AM
Frequency(GHz):2.500000E+0
Power(dBm):1.100000E+1
Time between measurements:2.000000E+0
Samplename: 	

305.4	-0.000000923484
303.9	-0.000000960287
301.4	-0.000000699881
299.11	-0.000000689833
296.61	-0.00000121016
294.17	-0.000000754844
291.62	-0.000000846367
289.39	-0.00000091065
286.84	-0.000000257519
284.32	-0.000000620343
281.81	-0.000000695281
279.12	-0.000000573008
276.56	-0.000000591046
274.03	-0.000000643587
271.22	-0.000000427733
268.6	-0.000000550369
266.13	-0.000000725788
263.26	-0.000000574945
260.78	-0.000000511508
258.14	-0.000000406789
255.53	-0.000000391779
252.87	-0.000000193357
250.11	-0.000000173866
247.36	-0.000000469866
244.83	-0.000000790445
242.26	-0.000000539962
239.51	-0.000000484393
236.59	-0.00000066841
234.11	-0.000000535117
231.23	-0.000000609328
228.5	-0.000000540079
225.92	-0.000000471921
223.05	-0.00000055727
220.34	-0.000000596494
217.77	-0.000000374466
215.01	-0.00000041611
212.07	-0.000000593102
209.51	-0.000000784138
206.6	-0.000000975174
203.83	-0.00000101609
201.22	-0.000000802902
197.695	-0.00000111258
195.872	-0.000000908834
193.03	-0.00000071344
190.247	-0.000000576276
187.778	-0.000000739831
184.913	-0.000000665257
181.972	-0.000000609205
179.43	-0.00000062228
176.472	-0.000000819975
173.764	-0.000000842009
170.924	-0.00000100326
168.274	-0.000000751575
165.256	-0.000000791162
162.656	-0.000000899029
159.954	-0.00000107287
157.074	-0.00000100641
154.4	-0.000000705934
151.471	-0.000000429307
148.613	-0.000000528578
145.949	-0.00000031006
143.104	-0.000000382819
140.131	-0.000000177618
137.479	-0.000000330278
134.642	-0.000000162607
131.709	-0.000000188151
129.085	-0.00000038863
126.201	-0.000000514898
123.466	-0.000000545527
120.718	-0.000000728452
117.838	-0.000000653273
115.03	0.0000000102711
112.256	-0.0000000921482
109.423	-0.000000394201
106.6	-0.000000596739
103.806	-0.000000276043
100.909	-0.000000658965
97.895	-0.000000786445
95.293	-0.000000771672
92.393	-0.000000788862
89.719	-0.000000547585
86.702	-0.000000824333
83.861	-0.000000910408
81.18	-0.00000104902
78.179	-0.00000113813
75.366	-0.00000130943
72.713	-0.00000200965
69.766	-0.00000166644
66.767	-0.0000018645
64.039	-0.00000191922
61.122	-0.00000237793
58.466	-0.00000238047
55.563	-0.00000269729
52.59	-0.0000026364
49.825	-0.00000329328
46.964	-0.00000302731
43.912	-0.00000286315
41.198	-0.00000258967
38.388	-0.00000236292
35.454	-0.00000179574
32.561	-0.00000149853
29.75	-0.00000109709
26.989	-0.000000234517
24.13	0.0000000620857
21.354	0.000000514739
17.4421	0.000000730231
15.6032	0.000000828414
12.8492	0.000000998628
9.844	0.00000103688
6.932	0.000000721396
4.1453	0.000000541737
1.8647	0.000000368496
-0.78504	0.000000550213
-5.4865	0.000000528423
-7.2755	0.000000482419
-10.1416	0.000000362929
-13.0678	0.000000326852
-15.9104	0.000000219226
-18.8183	0.000000092231
-21.6833	0.0000000212872
-24.5627	0.0000000775812
-27.527	-0.000000427853
-30.0524	-0.000000213453
-33.327	-0.000000187667
-36.254	-0.000000204616
-38.908	-0.000000134641
-41.871	-0.0000000122465
-44.575	-0.0000000100678
-47.472	-0.000000233307
-50.43	-0.000000307518
-53.241	-0.000000673975
-56.198	-0.000000657995
-59.095	-0.000000524342
-61.882	-0.000000485481
-64.847	-0.000000789588
-67.782	-0.000000594557
-70.529	-0.00000045594
-73.502	-0.000000472889
-76.246	-0.000000511629
-79.012	-0.000000644435
-81.963	-0.000000551096
-84.931	-0.00000101271
-87.745	-0.0000010161
-90.758	-0.00000135919
-93.575	-0.00000164974
-96.36	-0.00000181414
-99.473	-0.00000219403
-102.351	-0.00000251908
-105.189	-0.0000026462
-108.115	-0.00000233108
-110.817	-0.000000828449
-113.836	0.00000068338
-116.594	0.00000190006
-119.657	0.00000236555
-122.591	0.00000166895
-125.512	0.00000127804
-128.19	0.00000088725
-131.016	0.000000940639
-134	0.000000755171
-137.04	0.000000590404
-139.72	0.000000163416
-142.692	0.00000047721
-145.385	0.000000146467
-148.359	0.000000271283
-151.288	0.000000421401
-154.182	0.00000018218
-157.105	-0.0000002735
-159.95	-0.00000038863
-163.013	-0.00000039093
-165.779	-0.00000041139
-168.678	-0.000000387662
-171.536	-0.000000529062
-174.384	-0.000000423496
-177.445	-0.000000181734
-180.188	-0.000000293354
-183.09	-0.000000154495
-186.128	-0.000000417685
-188.943	-0.000000243839
-191.861	-0.000000219143
-194.78	-0.00000010377
-197.603	-0.000000314782
-200.526	-0.000000196867
-203.393	-0.000000541047
-206.187	-0.0000000565557
-209.289	-0.00000022338
-211.968	-0.000000252314
-214.948	0.0000000467109
-217.876	0.000000119349
-220.899	-0.0000000357329
-223.683	-0.000000204978
-226.686	0.0000000693496
-229.596	0.0000000716498
-232.495	0.00000019465
-235.406	-0.0000000191473
-238.364	-0.000000162364
-240.928	-0.000000220838
-244.01	-0.000000674822
-247.043	-0.000000661021
-249.864	-0.000000455699
-252.743	-0.00000081247
-255.646	-0.000000831598
