Date/time start measurement:  11/15/2021 - 11:43 AM
Frequency(GHz):9.000000E+0
Power(dBm):1.200000E+1
Time between measurements:1.000000E+0
Samplename: 	

1320.42	0.000000943301
1319.85	0.00000109281
1312.12	0.00000120068
1304.2	0.00000130503
1295.74	0.00000137283
1287	0.00000141532
1278.53	0.00000149813
1269.87	0.00000151302
1260.96	0.00000154692
1251.99	0.00000154922
1243.08	0.00000151133
1233.86	0.0000015152
1224.98	0.00000148348
1216	0.00000150963
1206.71	0.00000152949
1197.25	0.00000151399
1188	0.00000153421
1178.9	0.00000153348
1169.24	0.00000153179
1159.73	0.00000158082
1150.56	0.00000160298
1140.7	0.00000161762
1131.36	0.00000166411
1121.96	0.00000163857
1112.31	0.00000166012
1102.83	0.00000171145
1093.04	0.00000170309
1083.62	0.00000173881
1073.96	0.0000017514
1064.18	0.00000178699
1054.33	0.00000182888
1045.02	0.00000181956
1035.4	0.00000182089
1025.59	0.00000184595
1015.86	0.00000185043
1005.94	0.0000018813
996.26	0.00000185382
986.55	0.00000187949
976.86	0.00000189861
966.87	0.00000189728
957.03	0.00000194946
947.3	0.00000192658
937.57	0.00000194425
927.67	0.00000196702
917.78	0.00000199305
908.2	0.00000203396
898.08	0.0000020514
888.19	0.00000210188
878.73	0.00000216241
868.56	0.00000219667
858.49	0.00000225551
848.55	0.00000228009
838.79	0.00000233238
828.97	0.00000239896
818.92	0.00000246506
809.01	0.00000254339
799.14	0.0000026291
789.13	0.0000026969
779.22	0.00000276845
769.31	0.00000284314
759.3	0.00000293939
749.33	0.00000308842
739.4	0.00000320028
729.51	0.00000332195
719.4	0.00000346662
709.22	0.0000036384
699.36	0.00000382206
689.2	0.00000400111
679.28	0.00000421236
669.28	0.00000445473
659.28	0.00000466913
649.26	0.00000485835
639.14	0.00000495581
629.24	0.00000487639
619.08	0.00000457749
608.97	0.000003966
598.98	0.00000321795
588.83	0.00000239714
578.93	0.00000122647
568.94	0.000000527209
558.87	-0.000000227012
548.73	-0.000000582814
538.59	-0.000000793704
528.59	-0.000000966338
518.42	-0.00000101053
508.28	-0.00000103462
498.27	-0.000000994547
488.05	-0.000000966339
478.11	-0.000000928084
467.96	-0.000000855567
457.9	-0.000000811501
447.59	-0.000000722036
437.47	-0.000000671795
427.55	-0.000000635839
417.2	-0.000000565139
407.11	-0.000000554244
396.97	-0.000000503276
386.94	-0.000000472406
376.85	-0.0000004057
366.6	-0.000000357517
356.56	-0.000000343111
346.24	-0.000000306429
336.06	-0.000000286575
325.85	-0.000000252677
315.91	-0.000000217448
305.73	-0.000000172413
295.48	-0.000000161396
285.27	-0.000000186335
275.12	-0.000000109944
264.94	-0.000000126046
254.69	-0.000000120598
244.52	-0.000000110187
234.25	-0.000000128951
223.99	-0.000000142631
213.98	-0.000000147958
203.82	-0.000000147716
192.949	-0.000000161396
183.297	-0.000000192872
173.108	-0.000000190209
163.043	-0.000000239118
152.704	-0.000000245534
142.532	-0.000000271926
132.408	-0.000000295049
122.051	-0.000000288875
111.957	-0.00000038742
101.865	-0.000000439719
91.456	-0.00000056175
81.237	-0.000000556302
71.044	-0.000000580151
60.876	-0.000000636809
50.515	-0.000000611022
40.266	-0.000000674095
30.142	-0.000000672279
19.727	-0.000000667679
9.5626	-0.000000665136
-0.65814	-0.000000635476
-11.5713	-0.000000654967
-21.2102	-0.000000698912
-32.245	-0.00000111077
-41.577	-0.00000186765
-51.815	-0.00000198241
-62.193	-0.00000179622
-72.315	-0.00000167649
-82.666	-0.00000158279
-92.825	-0.00000150035
-103.184	-0.0000014926
-113.319	-0.00000135447
-123.621	-0.0000013541
-133.973	-0.00000129248
-144.044	-0.00000126016
-154.291	-0.00000120205
-164.546	-0.00000117784
-174.969	-0.0000011558
-185.097	-0.00000109212
-195.309	-0.00000109176
-205.711	-0.00000106537
-215.843	-0.00000105593
-226.13	-0.00000101622
-236.496	-0.00000099939
-246.621	-0.000000952054
-256.773	-0.000000965129
-267.048	-0.00000093789
-277.46	-0.000000889465
-287.732	-0.000000871185
-297.912	-0.000000843704
-308.77	-0.00000082167
-318.44	-0.00000082736
-328.53	-0.000000776393
-338.84	-0.000000730511
-349.15	-0.000000685233
-358.91	-0.00000073729
-369.45	-0.000000647219
-379.84	-0.000000588504
-390.2	-0.000000531484
-400.36	-0.000000504729
-410.5	-0.000000483906
-420.8	-0.000000415506
-431.06	-0.000000396741
-441.34	-0.000000361754
-451.71	-0.0000004103
-461.87	-0.000000350495
-472.11	-0.000000333183
-482.42	-0.000000355701
-492.79	-0.00000042628
-502.93	-0.000000498917
-513.12	-0.00000072143
-523.31	-0.00000102166
-533.58	-0.00000158497
-543.82	-0.00000215457
-554.22	-0.00000290334
-564.47	-0.00000401602
-574.45	-0.00000479106
-584.87	-0.00000570944
-595.06	-0.00000611137
-605.28	-0.00000625798
-615.39	-0.0000061806
-625.78	-0.00000598218
-636.17	-0.00000568836
-646.21	-0.000005388
-656.59	-0.00000512662
-666.68	-0.00000488365
-676.83	-0.0000046569
-687.15	-0.00000442192
-697.55	-0.00000425885
-707.78	-0.00000411105
-717.78	-0.00000397086
-728.14	-0.00000384375
-738.37	-0.00000371251
-748.53	-0.00000363237
-758.84	-0.0000035509
-768.87	-0.00000350235
-779.16	-0.00000343589
-789.15	-0.0000033796
-799.36	-0.00000329946
-809.74	-0.0000032388
-819.9	-0.00000316496
-830.25	-0.000003129
-840.51	-0.00000307961
-850.86	-0.00000304232
-860.91	-0.00000300975
-871.2	-0.00000296884
-881.34	-0.00000290104
-891.45	-0.00000287453
-901.77	-0.00000283288
-912	-0.0000028284
-922.26	-0.00000281242
-932.38	-0.00000277392
-942.64	-0.0000027876
-952.91	-0.0000027692
-962.96	-0.00000283034
-973.28	-0.00000279801
-983.38	-0.0000027692
-993.63	-0.00000280044
-1003.76	-0.00000272877
-1013.97	-0.00000269124
-1024.2	-0.00000264366
-1034.2	-0.0000026071
-1044.47	-0.00000259718
-1054.77	-0.00000252853
-1064.86	-0.00000252539
-1075.09	-0.0000024835
-1085.11	-0.00000250093
-1095.27	-0.00000245348
-1105.54	-0.00000246122
-1115.57	-0.00000244657
-1125.99	-0.00000242672
-1135.68	-0.00000240807
-1146.11	-0.00000244778
-1156.42	-0.0000024025
-1166.61	-0.00000240565
-1176.53	-0.00000239463
-1186.65	-0.00000240977
-1196.99	-0.0000024117
-1207.01	-0.0000024025
-1217.34	-0.00000242127
-1227.56	-0.00000242115
-1237.53	-0.00000241388
-1247.53	-0.00000244851
-1257.78	-0.00000241582
-1267.97	-0.00000242635
-1278.22	-0.00000243531
