Date/time start measurement:  11/15/2021 - 11:54 AM
Frequency(GHz):9.000000E+0
Power(dBm):1.500000E+1
Time between measurements:1.000000E+0
Samplename: 	

1320.54	0.00000241058
1319.88	0.00000249181
1312.21	0.00000257086
1304.02	0.00000271057
1295.76	0.00000274749
1287.21	0.00000281238
1278.63	0.00000286807
1269.95	0.00000292207
1261.15	0.00000294302
1252.05	0.00000292643
1243.09	0.00000296626
1234.13	0.00000301045
1225.01	0.00000301251
1215.83	0.00000307619
1206.77	0.00000310112
1197.16	0.00000312655
1187.82	0.00000315367
1178.65	0.00000317086
1169.23	0.00000320875
1159.73	0.00000323332
1150.37	0.00000326238
1140.78	0.00000329071
1131.32	0.00000331056
1121.72	0.00000333381
1112.25	0.00000331746
1102.71	0.00000335717
1093.19	0.00000340996
1083.81	0.00000338575
1074.06	0.00000343538
1064.42	0.00000347812
1054.56	0.00000350705
1044.93	0.00000354228
1035.19	0.00000356032
1025.51	0.00000361334
1015.98	0.00000363695
1006.36	0.00000363526
996.67	0.00000372569
986.63	0.00000377726
976.89	0.00000381128
967	0.00000383876
957.18	0.00000389433
947.68	0.00000390959
937.7	0.00000395293
927.72	0.00000404978
917.94	0.00000406007
908.13	0.00000413246
898.18	0.00000419941
888.29	0.00000425183
878.47	0.00000435401
868.49	0.00000442749
858.6	0.00000451562
848.57	0.00000455049
838.72	0.0000046247
828.92	0.00000471912
818.95	0.00000483159
809.14	0.00000492735
799.25	0.00000504345
789.41	0.00000515822
779.34	0.0000053035
769.34	0.00000545858
759.36	0.0000056277
749.27	0.00000583896
739.45	0.00000606656
729.42	0.00000627164
719.52	0.00000661256
709.26	0.00000688629
699.38	0.00000726388
689.33	0.00000766859
679.32	0.00000804329
669.57	0.00000856749
659.33	0.00000897692
649.26	0.00000943212
639.27	0.00000967279
629.27	0.00000962665
619.31	0.00000900814
609.09	0.0000080348
599.03	0.00000625009
588.95	0.00000443741
578.9	0.00000282897
568.95	0.000000867999
558.82	-0.000000246745
548.7	-0.00000126585
538.6	-0.0000017231
528.69	-0.00000198253
518.43	-0.00000216316
508.32	-0.00000216122
498.25	-0.00000214658
488.05	-0.00000206304
478.21	-0.00000196038
467.97	-0.0000018616
457.8	-0.00000172468
447.67	-0.00000162553
437.46	-0.00000154042
427.53	-0.00000143582
417.3	-0.00000130677
407.08	-0.00000123643
396.92	-0.00000112772
386.96	-0.00000104648
376.89	-0.000000996727
366.7	-0.000000928932
356.59	-0.000000872396
346.33	-0.000000782446
336.09	-0.000000736321
325.86	-0.000000687896
316.04	-0.000000676395
305.78	-0.000000647098
295.5	-0.000000675669
285.44	-0.000000682811
275.12	-0.00000065412
265.04	-0.000000621554
254.82	-0.000000587777
244.65	-0.000000600852
234.36	-0.000000586688
224.1	-0.000000617559
214.04	-0.000000583903
204.08	-0.000000772639
193.217	-0.000000811985
183.485	-0.00000091852
173.516	-0.00000104927
163.076	-0.00000106077
152.798	-0.00000106682
142.726	-0.000000856778
132.326	-0.000000837771
122.031	-0.000000832444
112.238	-0.000000891039
101.975	-0.000000545043
91.755	-0.00000105944
81.541	-0.00000127009
71.336	-0.00000088874
60.656	-0.00000102288
50.719	-0.00000149672
40.442	-0.00000183509
30.226	-0.00000160677
20.007	-0.00000174054
8.8373	-0.00000145967
-0.71686	-0.00000125411
-11.5463	-0.00000152153
-21.2449	-0.00000250287
-31.945	-0.00000197793
-41.345	-0.00000335985
-51.72	-0.00000336627
-61.83	-0.00000321821
-71.948	-0.00000287524
-82.277	-0.00000259377
-92.66	-0.00000269728
-103.044	-0.00000286326
-113.27	-0.00000284304
-123.312	-0.00000300671
-133.915	-0.00000268893
-144.013	-0.00000303759
-154.255	-0.00000284898
-164.6	-0.00000261593
-174.895	-0.00000240371
-185.177	-0.00000250855
-195.319	-0.0000023738
-205.592	-0.00000210505
-215.83	-0.00000236
-226.201	-0.00000242732
-236.52	-0.00000223435
-246.614	-0.00000261872
-256.506	-0.00000246449
-267.001	-0.00000257223
-277.198	-0.00000234512
-287.355	-0.00000219355
-297.902	-0.00000201316
-308.75	-0.00000213072
-318.4	-0.00000212732
-328.6	-0.0000020473
-338.55	-0.00000193919
-349.02	-0.00000168399
-358.92	-0.00000170566
-369.42	-0.00000134829
-379.53	-0.00000113703
-390.07	-0.000000783535
-400.06	-0.000000462114
-410.14	-0.000000702665
-420.49	-0.000000581118
-430.67	-0.000000861499
-441.21	-0.000000655572
-451.93	-0.000000355338
-461.89	-0.000000354006
-472.08	-0.000000223985
-482.37	-0.000000450372
-492.48	-0.000000446619
-502.53	-0.00000066223
-512.75	-0.00000106488
-523.32	-0.00000177164
-533.45	-0.00000288566
-543.84	-0.00000396892
-554.23	-0.00000592516
-564.34	-0.00000725963
-574.49	-0.0000091097
-584.75	-0.0000111024
-595.15	-0.0000118249
-605.27	-0.0000121496
-615.42	-0.000011972
-625.69	-0.0000115309
-636.07	-0.0000108903
-646.26	-0.0000105999
-656.47	-0.00000991094
-666.63	-0.00000948708
-676.9	-0.00000911748
-687.27	-0.00000864896
-697.49	-0.00000824667
-707.69	-0.00000794112
-717.72	-0.00000768882
-728.12	-0.00000743048
-738.37	-0.00000708884
-748.61	-0.0000069087
-758.85	-0.00000678292
-768.93	-0.00000661585
-779.29	-0.00000641586
-789.34	-0.00000628233
-799.46	-0.00000613996
-809.83	-0.00000600301
-819.96	-0.00000597214
-830.24	-0.00000582857
-840.57	-0.00000574661
-850.85	-0.00000567651
-861.03	-0.000005596
-871.3	-0.00000551126
-881.43	-0.00000547458
-891.5	-0.0000054126
-901.9	-0.00000537653
-912.02	-0.00000529348
-922.37	-0.0000052603
-932.4	-0.00000525522
-942.66	-0.00000516793
-952.91	-0.00000513549
-962.96	-0.00000511237
-973.32	-0.00000506745
-983.38	-0.00000504312
-993.73	-0.00000500825
-1003.83	-0.00000500971
-1014.07	-0.0000049729
-1024.28	-0.00000494736
-1034.32	-0.00000492483
-1044.53	-0.00000487823
-1054.83	-0.00000485147
-1064.93	-0.00000481127
-1075.21	-0.00000480038
-1085.3	-0.00000478151
-1095.44	-0.00000474519
-1105.72	-0.00000475282
-1115.86	-0.00000473756
-1126	-0.00000470875
-1136.03	-0.000004678
-1146.3	-0.00000462885
-1156.55	-0.0000046504
-1166.62	-0.00000460973
-1176.8	-0.00000459252
-1186.9	-0.0000045424
-1197.14	-0.00000450862
-1207.14	-0.00000452351
-1217.42	-0.00000449337
-1227.65	-0.00000448804
-1237.6	-0.0000044585
-1247.48	-0.00000441479
-1257.76	-0.00000442811
-1268.06	-0.0000043947
-1278.23	-0.00000440269
