Date/time start measurement:  2/24/2022 - 9:54 AM
Frequency(GHz):5.000000E+0
Power(dBm):1.800000E+1
Time between measurements:1.000000E+0
Samplename: 	

356.67	-0.0000218196
357.44	-0.0000190763
361.81	-0.0000178686
366.38	-0.0000172687
370.88	-0.0000169591
375.38	-0.0000166841
380.07	-0.000016412
384.75	-0.00001633
389.11	-0.0000162773
393.74	-0.0000161551
398.48	-0.0000160777
403.2	-0.0000160366
407.99	-0.0000159929
412.7	-0.0000160434
417.58	-0.0000158801
422.37	-0.0000159523
427.28	-0.0000159508
432.07	-0.000015816
436.89	-0.0000158639
441.82	-0.0000158994
446.71	-0.0000157414
451.41	-0.0000157266
456.34	-0.0000157641
461.29	-0.0000156895
466.09	-0.0000156298
470.99	-0.0000153255
475.83	-0.0000152492
480.74	-0.0000149106
485.56	-0.0000146335
490.2	-0.0000141474
495.21	-0.0000132619
500.12	-0.0000116355
505.01	-0.00000854786
509.84	-0.00000342543
514.79	-0.000000223686
519.69	-0.00000498374
524.52	-0.0000118052
529.34	-0.0000151536
534.12	-0.0000169169
539.13	-0.0000177002
544.02	-0.000018087
548.96	-0.0000179315
553.91	-0.0000181537
558.77	-0.0000184413
563.64	-0.0000185121
568.5	-0.0000183661
573.52	-0.0000183499
578.37	-0.0000183511
583.31	-0.000018367
588.07	-0.0000183737
592.91	-0.0000185304
597.9	-0.0000188248
602.86	-0.0000183748
607.61	-0.0000185278
612.57	-0.0000181922
617.65	-0.0000180614
622.56	-0.0000183727
627.35	-0.0000186182
632.28	-0.0000186344
637.15	-0.000018296
641.95	-0.0000180411
645.54	-0.0000185753
650.67	-0.0000187521
655.65	-0.0000186664
660.99	-0.000018188
666.14	-0.0000184692
671.21	-0.0000184701
676.71	-0.0000183822
681.78	-0.0000181373
686.9	-0.0000185401
691.95	-0.0000169358
