Date/time start measurement:  7/30/2021 - 11:27 AM
Frequency(GHz):4.000000E+0
Power(dBm):1.100000E+1
Time between measurements:2.000000E+0
Samplename: 	

606.97	-0.00000664658
605.94	-0.00000662758
602.92	-0.00000643533
599.7	-0.00000632043
595.85	-0.00000636825
592.1	-0.00000639706
587.97	-0.00000644551
583.84	-0.00000644685
579.62	-0.00000631162
575.36	-0.0000063523
571.19	-0.00000624759
566.57	-0.00000644223
561.99	-0.00000658617
557.76	-0.00000669308
553.18	-0.0000065948
548.67	-0.0000067161
544.3	-0.00000670109
539.78	-0.00000678816
535.13	-0.00000671405
530.41	-0.00000681659
525.7	-0.00000672856
520.82	-0.00000663084
516.47	-0.00000661256
511.82	-0.00000645188
507.13	-0.00000648931
502.09	-0.00000633253
497.46	-0.00000623702
492.87	-0.00000629466
487.94	-0.00000626802
483.31	-0.00000615604
478.58	-0.00000621778
474.1	-0.00000615582
469.3	-0.00000618464
464.34	-0.00000612459
459.83	-0.0000061419
455.06	-0.00000607314
450.15	-0.00000590207
445.66	-0.00000586742
440.59	-0.00000589877
435.74	-0.00000593474
431.22	-0.00000600023
426.3	-0.00000605616
421.46	-0.00000605725
416.6	-0.00000610009
411.67	-0.00000620505
407.3	-0.00000619547
402.38	-0.00000598181
397.19	-0.00000594004
392.47	-0.00000593168
387.82	-0.00000621741
382.93	-0.00000607626
378.15	-0.00000627928
373.31	-0.00000634063
368.36	-0.0000065353
363.39	-0.00000633349
358.95	-0.00000621098
353.8	-0.00000634006
349.06	-0.00000626792
344.02	-0.00000615703
339.34	-0.00000602859
334.23	-0.00000601504
329.42	-0.00000599349
324.66	-0.00000590654
319.82	-0.00000574359
314.87	-0.00000563513
310.14	-0.00000573428
305.31	-0.00000571574
300.11	-0.00000581974
295.56	-0.00000596514
290.71	-0.00000594467
285.73	-0.00000589769
280.77	-0.00000603304
275.63	-0.00000602578
270.69	-0.000006161
266.04	-0.00000633182
260.92	-0.00000647843
256.28	-0.00000652745
250.97	-0.00000668725
246.17	-0.00000687393
241.41	-0.0000070088
236.49	-0.0000070134
231.54	-0.00000711643
226.61	-0.00000727441
221.36	-0.0000073295
216.53	-0.0000073318
211.54	-0.00000737913
206.89	-0.00000747102
202.02	-0.00000747974
197.006	-0.00000753494
192.171	-0.00000773857
187.19	-0.00000768324
182.211	-0.00000767404
176.992	-0.0000075278
172.405	-0.00000747865
167.518	-0.00000760032
162.531	-0.00000746085
157.49	-0.0000072042
152.497	-0.0000071128
147.281	-0.00000690118
142.654	-0.00000684343
137.514	-0.00000668654
132.651	-0.00000633655
127.627	-0.0000062909
122.639	-0.00000612202
117.698	-0.00000605132
112.909	-0.00000594491
107.766	-0.00000585509
102.952	-0.00000584819
97.932	-0.00000578463
92.976	-0.0000057488
87.991	-0.00000572483
83.131	-0.00000582955
77.872	-0.00000578002
72.642	-0.00000543839
67.646	-0.00000553427
62.805	-0.00000553027
58.093	-0.00000536514
52.803	-0.00000535001
48.149	-0.00000553741
43.046	-0.00000535836
38.039	-0.0000053402
33.028	-0.00000538196
28.103	-0.00000535545
23.127	-0.0000054293
20.824	-0.00000543051
11.5992	-0.00000552809
8.4453	-0.00000556586
3.2371	-0.00000553487
-0.60307	-0.00000547422
-6.886	-0.00000545569
-11.8914	-0.00000548681
-17.0575	-0.00000550533
-21.7817	-0.00000566574
-26.8562	-0.00000560423
-33.931	-0.00000574309
-36.743	-0.00000570421
-41.643	-0.0000056771
-46.664	-0.00000549659
-51.687	-0.00000552297
-56.768	-0.00000562417
-62.058	-0.00000565008
-66.951	-0.00000575869
-71.652	-0.00000607902
-76.69	-0.00000601171
-82.066	-0.00000606343
-87.074	-0.00000626924
-92.071	-0.00000612069
-96.955	-0.00000602275
-101.632	-0.00000609987
-106.615	-0.00000606137
-111.923	-0.00000608534
-116.762	-0.00000585339
-121.738	-0.00000587917
-126.782	-0.00000585738
-131.819	-0.00000594382
-136.884	-0.00000603886
-142.044	-0.00000609077
-146.85	-0.00000614428
-151.877	-0.00000614187
-156.926	-0.00000592782
-161.894	-0.00000595313
-164.002	-0.00000601315
-169.018	-0.00000604174
-176.421	-0.00000613859
-181.984	-0.0000061243
-186.931	-0.00000646607
-191.836	-0.00000647541
-193.931	-0.0000065392
-198.41	-0.0000065306
-206.4	-0.00000645167
-211.565	-0.00000620181
-216.544	-0.00000598329
-221.526	-0.00000588257
-226.648	-0.00000568913
-231.996	-0.00000554918
-236.994	-0.0000055332
-241.712	-0.00000542653
-246.572	-0.00000507436
-251.571	-0.00000515947
-256.809	-0.00000521902
-261.756	-0.00000518185
-266.696	-0.00000505851
-271.813	-0.00000507643
-276.857	-0.00000519085
-281.913	-0.00000536506
-287.263	-0.00000544944
-292.182	-0.00000556435
-297.46	-0.00000566879
-304.19	-0.00000550862
-307.09	-0.00000557533
-312.22	-0.00000547799
-317.32	-0.00000545509
-322.76	-0.00000553826
-327.97	-0.00000552133
-332.76	-0.00000562264
-337.85	-0.00000583135
-343.15	-0.00000585702
-348.39	-0.00000596113
-353.42	-0.00000596851
-358.49	-0.00000590616
-363.73	-0.00000577977
-368.62	-0.00000587626
-374.02	-0.00000588425
-378.97	-0.0000059403
-384.47	-0.00000589782
-389.44	-0.00000587433
-394.83	-0.00000584091
-399.63	-0.00000586682
-404.69	-0.0000059943
-409.82	-0.00000588353
-415.32	-0.00000596125
-420.4	-0.00000595398
-425.32	-0.00000597239
-430.66	-0.0000058115
-435.54	-0.00000590448
-440.72	-0.0000060144
-446.23	-0.00000571587
-451.16	-0.0000057172
-456.29	-0.00000578173
-461.6	-0.00000577288
-466.51	-0.00000575993
-471.86	-0.0000057471
-477.09	-0.00000575048
-482.13	-0.00000566671
-487.37	-0.00000565339
-492.49	-0.00000558741
-497.79	-0.00000554637
-502.88	-0.00000554237
-507.73	-0.00000549201
-512.88	-0.0000055063
-518.37	-0.00000557373
-523.18	-0.00000566029
-528.51	-0.00000559685
-533.73	-0.00000537712
-538.73	-0.00000557107
-544.15	-0.00000548063
-549.17	-0.00000575351
-554.11	-0.00000559274
-559.28	-0.00000573753
-564.35	-0.00000561513
-569.56	-0.00000574879
