Date/time start measurement:  7/30/2021 - 11:42 AM
Frequency(GHz):5.000000E+0
Power(dBm):1.100000E+1
Time between measurements:2.000000E+0
Samplename: 	

603.94	-0.00000585822
602.85	-0.00000590846
599.76	-0.00000583728
596.48	-0.00000576234
592.67	-0.00000582978
589.11	-0.00000575364
585.14	-0.00000570121
580.96	-0.00000568039
576.59	-0.00000563075
572.31	-0.00000568704
568.01	-0.00000580726
563.6	-0.00000578026
558.91	-0.00000579479
554.52	-0.0000058535
550.08	-0.00000575883
545.46	-0.00000576041
541.07	-0.00000566816
536.55	-0.00000556574
531.94	-0.00000554528
527.26	-0.0000055247
522.58	-0.00000566647
517.83	-0.00000560146
513.2	-0.00000562143
508.59	-0.00000571864
503.93	-0.00000578922
499.18	-0.00000571876
494.57	-0.00000579467
489.77	-0.00000578353
485.12	-0.00000567337
482.95	-0.00000577203
478.57	-0.00000594987
471	-0.00000627432
466.11	-0.00000626463
461.19	-0.00000621076
456.82	-0.00000617674
452.09	-0.00000616705
446.94	-0.00000607069
442.32	-0.0000058558
437.31	-0.00000580447
432.66	-0.00000583038
428.01	-0.00000589661
423.22	-0.00000601864
418.3	-0.0000061173
413.36	-0.00000632068
408.72	-0.00000633654
404.02	-0.0000063926
399.2	-0.00000655313
394.33	-0.00000666196
389.39	-0.00000691826
384.68	-0.00000691547
379.49	-0.00000694174
375.05	-0.00000691729
370.18	-0.00000696233
365.18	-0.00000704127
360.29	-0.00000682215
355.63	-0.0000068167
350.71	-0.0000067518
345.81	-0.00000683582
340.96	-0.00000694417
336.1	-0.00000690749
331.32	-0.00000691875
326.17	-0.00000687783
321.31	-0.00000706449
316.63	-0.00000686654
311.63	-0.00000686569
307.06	-0.00000671812
301.97	-0.00000678228
297.23	-0.00000663157
292.28	-0.0000068036
287.28	-0.00000676922
282.25	-0.00000668798
277.67	-0.00000677212
272.76	-0.00000644332
267.78	-0.00000645434
262.56	-0.00000633099
257.85	-0.00000629939
253.05	-0.00000614999
248.01	-0.00000612419
243.14	-0.00000608437
238.22	-0.00000601802
233.35	-0.00000604017
228.17	-0.00000613571
223.3	-0.00000598184
218.53	-0.00000611987
216.19	-0.00000609058
211.68	-0.00000596081
203.85	-0.00000592207
199.92	-0.00000593451
193.806	-0.00000584214
189.052	-0.00000577144
183.833	-0.00000574733
179.082	-0.00000570036
174.024	-0.00000559793
169.105	-0.00000569744
164.285	-0.00000562105
159.157	-0.00000565592
154.371	-0.00000566645
149.064	-0.00000567953
144.129	-0.00000565485
139.052	-0.00000563534
134.513	-0.00000568727
129.35	-0.000005665
127.217	-0.00000566293
122.614	-0.00000560252
114.526	-0.00000556838
109.576	-0.00000559043
104.59	-0.0000055339
99.824	-0.00000548088
94.871	-0.00000543196
89.835	-0.00000547179
84.724	-0.00000549794
79.452	-0.0000054184
74.631	-0.00000546162
69.603	-0.00000557869
64.329	-0.00000562978
59.685	-0.00000567082
54.65	-0.00000557942
49.743	-0.0000055356
44.417	-0.00000573402
39.494	-0.0000055758
34.401	-0.00000553367
29.634	-0.0000056195
24.437	-0.00000567254
19.515	-0.00000575717
14.6683	-0.00000572772
9.3989	-0.00000569225
4.8365	-0.00000551211
-2.24943	-0.0000056116
-3.05367	-0.00000569477
-10.1632	-0.0000056869
-15.4477	-0.00000559249
-20.4471	-0.00000571634
-25.2888	-0.00000573523
-30.3165	-0.00000576805
-35.675	-0.00000578693
-40.705	-0.00000575197
-45.665	-0.00000571032
-50.472	-0.00000569944
-55.331	-0.00000569627
-60.349	-0.00000581019
-65.668	-0.00000585294
-70.527	-0.00000586187
-75.696	-0.00000578741
-80.566	-0.00000588269
-85.362	-0.00000596659
-90.764	-0.00000597639
-95.779	-0.00000607554
-100.362	-0.00000609103
-105.749	-0.00000613861
-110.867	-0.00000619588
-115.786	-0.00000601331
-120.595	-0.00000614672
-125.846	-0.00000627543
-130.987	-0.00000623657
-135.851	-0.00000634115
-141.152	-0.00000624672
-145.841	-0.00000619018
-150.568	-0.00000608764
-155.606	-0.00000613569
-160.666	-0.00000594803
-165.801	-0.00000613458
-171.176	-0.00000602163
-175.988	-0.00000590071
-181.111	-0.00000594478
-185.932	-0.00000605156
-191.209	-0.00000622361
-196.104	-0.00000612931
-201.053	-0.00000602542
-206.073	-0.00000609612
-211.167	-0.00000620326
-216.392	-0.00000625109
-221.097	-0.00000631223
-226.541	-0.00000639248
-231.39	-0.00000640953
-236.758	-0.00000632744
-241.668	-0.00000645008
-243.862	-0.00000657355
-248.301	-0.00000650309
-256.012	-0.0000065359
-261.347	-0.00000647611
-266.635	-0.00000658276
-271.565	-0.00000652576
-276.614	-0.00000655747
-281.96	-0.00000645251
-286.857	-0.00000654889
-292.042	-0.00000667867
-296.748	-0.00000644964
-303.68	-0.00000660266
-306.92	-0.00000661465
-312.1	-0.00000642688
-316.88	-0.00000633331
-321.91	-0.00000631139
-326.81	-0.0000062965
-331.93	-0.00000609796
-336.99	-0.00000607581
-342.09	-0.00000585327
-347.43	-0.00000588111
-351.97	-0.00000586657
-356.9	-0.00000579765
-361.88	-0.00000580831
-367.26	-0.00000587647
-372.44	-0.00000570723
-377.58	-0.000005792
-382.32	-0.00000577638
-387.71	-0.0000059
-389.76	-0.00000587215
-394.37	-0.00000590872
-402.23	-0.00000587349
-407.46	-0.0000058822
-412.81	-0.00000585702
-417.72	-0.00000598874
-422.88	-0.00000600883
-427.71	-0.00000604067
-432.99	-0.00000596403
-438.16	-0.00000594321
-443.12	-0.00000595071
-447.99	-0.00000596803
-452.99	-0.00000578861
-458.22	-0.00000582784
-463.32	-0.00000585859
-468.14	-0.00000595859
-473.2	-0.00000605701
-478.31	-0.00000605798
-483.59	-0.00000614599
-488.32	-0.00000608267
-493.75	-0.00000615095
-498.5	-0.00000609865
-503.66	-0.00000608619
-508.39	-0.000005819
-513.67	-0.00000582615
-518.6	-0.00000585121
-524.06	-0.00000576828
-528.72	-0.00000570775
-534.18	-0.00000573281
-538.9	-0.00000570073
-544.25	-0.00000571271
-549.09	-0.00000575423
-554.29	-0.00000573111
-559.49	-0.00000559915
-564.46	-0.00000560908
-569.47	-0.00000562421
